x = temp. degC, y = integration time, z = pixel counts
z(x,y) = p00 + p10*x + p01*y + p20*x^2 + p11*x*y + p30*x^3 + p21*x^2*y
px_num	rmse	p00	p10	p01	p20	p11	p30	p21
1	68.5404	1419.51	19.7992	9.39285e-06	-1.01755	-2.2599e-06	0.0139918	7.75108e-08	
2	63.562	1424.72	19.0778	6.96087e-06	-0.973644	-2.23142e-06	0.0132975	6.8284e-08	
3	94.6511	1393.66	25.9959	1.53439e-05	-1.36787	-2.81474e-06	0.0191684	1.19742e-07	
4	76.6288	1409.92	22.3085	8.67576e-06	-1.15111	-2.5968e-06	0.015905	8.74011e-08	
5	77.179	1409.23	22.1413	1.11191e-05	-1.14382	-2.45524e-06	0.0158012	9.11108e-08	
6	77.9315	1401.22	23.8753	5.83279e-06	-1.20678	-2.83448e-06	0.016459	8.12647e-08	
7	94.1323	1396.86	25.2447	1.60551e-05	-1.3355	-2.72105e-06	0.0187784	1.21467e-07	
8	94.5478	1397.84	25.1832	1.58166e-05	-1.33379	-2.7433e-06	0.0187721	1.2146e-07	
9	64.7155	1490.99	4.37893	-8.9341e-06	-0.318971	-8.79796e-07	0.00498799	1.55768e-08	
10	84.6852	1399.97	24.3386	1.11769e-05	-1.25545	-2.74224e-06	0.0173676	1.00808e-07	
11	92.8558	1398.71	24.7715	1.57257e-05	-1.30827	-2.67818e-06	0.0183471	1.17998e-07	
12	68.4878	1419.07	19.659	9.03061e-06	-1.01464	-2.23915e-06	0.0140163	7.90207e-08	
13	89.9105	1396.11	25.0644	1.43269e-05	-1.30945	-2.73242e-06	0.0182656	1.11069e-07	
14	88.2627	1402.55	23.5899	1.50736e-05	-1.23582	-2.52313e-06	0.0172386	1.08999e-07	
15	89.089	1399.64	24.3598	1.50042e-05	-1.28007	-2.60486e-06	0.0179127	1.12626e-07	
16	84.8663	1402.98	24.0053	1.25897e-05	-1.24782	-2.67156e-06	0.0173212	1.0351e-07	
17	78.4077	1411.15	21.8611	1.15302e-05	-1.1373	-2.43007e-06	0.0157904	9.37667e-08	
18	73.5101	1413.95	20.6846	1.13518e-05	-1.07555	-2.32317e-06	0.0149415	8.80938e-08	
19	71.1453	1415.75	20.2783	1.05545e-05	-1.04982	-2.24908e-06	0.0145305	8.3325e-08	
20	91.0264	1397.63	25.074	1.49269e-05	-1.31128	-2.69626e-06	0.0182794	1.12498e-07	
21	84.0533	1405.98	23.0913	1.37883e-05	-1.20471	-2.51381e-06	0.0167805	1.02531e-07	
22	62.0495	1425.55	18.0735	7.80724e-06	-0.925851	-2.07616e-06	0.0127154	6.73647e-08	
23	84.7034	1401.35	23.7086	1.30867e-05	-1.23357	-2.62577e-06	0.0171422	1.03609e-07	
24	151.762	1366.88	31.4887	1.57182e-05	-1.56784	-3.20456e-06	0.0210609	1.12393e-07	
25	57.7152	1427.16	17.8987	3.27224e-06	-0.906943	-2.22902e-06	0.0123732	5.80397e-08	
26	91.6365	1398.33	24.8247	1.51689e-05	-1.30852	-2.69311e-06	0.0183684	1.16174e-07	
27	76.3913	1412.92	21.3636	1.16418e-05	-1.11305	-2.36469e-06	0.0154901	9.16787e-08	
28	90.3588	1399.05	24.3114	1.54012e-05	-1.27719	-2.60518e-06	0.0178471	1.13026e-07	
29	77.5628	1405.51	22.6771	7.78522e-06	-1.16373	-2.64074e-06	0.0160377	8.85017e-08	
30	84.2703	1403.44	23.4664	1.16711e-05	-1.22069	-2.64516e-06	0.0169607	1.0175e-07	
31	94.4311	1396.56	25.262	1.60627e-05	-1.33647	-2.70647e-06	0.0187894	1.20212e-07	
32	79.5052	1413.19	21.461	1.29364e-05	-1.12569	-2.36988e-06	0.0157128	9.84908e-08	
33	91.5855	1396.96	24.7109	1.5558e-05	-1.30043	-2.66655e-06	0.0182193	1.16229e-07	
34	76.5941	1412.14	21.7973	1.06841e-05	-1.13087	-2.46829e-06	0.0156993	8.89767e-08	
35	68.2553	1420.5	19.4278	1.04889e-05	-1.0037	-2.14568e-06	0.0138625	7.98224e-08	
36	85.5543	1404.74	23.293	1.3887e-05	-1.22329	-2.56351e-06	0.0171093	1.06817e-07	
37	85.763	1400.51	23.983	1.29114e-05	-1.24951	-2.65668e-06	0.0174133	1.04131e-07	
38	65.6075	1421.82	19.1664	8.00524e-06	-0.985929	-2.23866e-06	0.0135998	7.25741e-08	
39	67.2874	1417.95	19.8022	8.6357e-06	-1.01041	-2.26169e-06	0.0138461	7.36001e-08	
40	86.7913	1402.36	24.1714	1.32083e-05	-1.26185	-2.66293e-06	0.0175766	1.07391e-07	
41	80.5514	1410.47	21.9181	1.29823e-05	-1.14767	-2.39622e-06	0.0160075	9.9304e-08	
42	91.5252	1397.94	24.9908	1.52751e-05	-1.31096	-2.71836e-06	0.0183339	1.15142e-07	
43	76.0868	1414.11	21.0564	1.22556e-05	-1.1004	-2.29968e-06	0.015333	9.21719e-08	
44	87.5179	1403.09	23.7986	1.43597e-05	-1.25324	-2.63292e-06	0.0175823	1.11491e-07	
45	80.9185	1406.64	22.6283	1.24203e-05	-1.17499	-2.49658e-06	0.0163008	9.6827e-08	
46	93.7695	1395.2	25.4703	1.57101e-05	-1.34014	-2.7482e-06	0.0187621	1.19401e-07	
47	78.1484	1410.84	21.4455	1.24928e-05	-1.11852	-2.36168e-06	0.0155611	9.51425e-08	
48	90.9266	1397.72	24.4128	1.52618e-05	-1.29066	-2.64449e-06	0.0181254	1.1745e-07	
49	82.3276	1406.47	22.7131	1.31394e-05	-1.18589	-2.49591e-06	0.0165139	1.00898e-07	
50	84.114	1399.79	24.039	1.1763e-05	-1.2469	-2.80503e-06	0.0172947	1.05061e-07	
51	81.0579	1413.69	21.2515	1.37039e-05	-1.1279	-2.37924e-06	0.0158954	1.05848e-07	
52	79.0323	1408.93	21.609	1.27843e-05	-1.1283	-2.34542e-06	0.0157311	9.5822e-08	
53	83.9868	1400.57	23.7077	1.16177e-05	-1.23289	-2.66387e-06	0.0171512	1.02687e-07	
54	89.2314	1402.84	24.0839	1.51974e-05	-1.27451	-2.58993e-06	0.0179093	1.14096e-07	
55	76.3154	1409.28	21.9184	1.03693e-05	-1.12618	-2.47457e-06	0.0155189	8.75178e-08	
56	74.2771	1415.29	20.8155	8.07099e-06	-1.07802	-2.50918e-06	0.0149313	9.04382e-08	
57	72.6984	1417	20.2954	1.15704e-05	-1.0573	-2.23355e-06	0.0146991	8.84572e-08	
58	85.9732	1403.64	23.3145	1.45652e-05	-1.22427	-2.50977e-06	0.0171057	1.08121e-07	
59	84.6312	1407.86	22.6425	1.46022e-05	-1.19632	-2.45177e-06	0.0167522	1.08317e-07	
60	87.2069	1403.19	23.9316	1.44358e-05	-1.2539	-2.59157e-06	0.0174876	1.09001e-07	
61	61.2757	1426.04	18.0819	7.0429e-06	-0.926451	-2.13159e-06	0.0127292	6.73692e-08	
62	71.5546	1409.32	21.9679	4.85705e-06	-1.11066	-2.65632e-06	0.0151501	7.42157e-08	
63	120.541	1469.77	8.23921	-1.49112e-05	-0.579121	-6.68049e-07	0.00916525	1.34277e-08	
64	65.3421	1424.42	18.7716	7.65525e-06	-0.96982	-2.23262e-06	0.0134101	7.60879e-08	
65	73.988	1415.13	20.5705	1.10183e-05	-1.06839	-2.31879e-06	0.0148189	8.78617e-08	
66	89.599	1401.73	24.3252	1.34326e-05	-1.27902	-2.67728e-06	0.0179254	1.1366e-07	
67	93.15	1397.42	24.9236	1.58098e-05	-1.3202	-2.6859e-06	0.0185657	1.1993e-07	
68	93.659	1397.77	24.7897	1.61303e-05	-1.31372	-2.67862e-06	0.0184988	1.2055e-07	
69	64.7438	1421.57	18.7638	7.91366e-06	-0.963995	-2.19242e-06	0.013274	7.27532e-08	
70	78.9795	1407.82	22.1138	1.22933e-05	-1.14695	-2.45153e-06	0.0158741	9.58374e-08	
71	78.8354	1410.54	21.6461	1.31666e-05	-1.13533	-2.34734e-06	0.0158888	9.6387e-08	
72	84.4317	1405.34	22.9557	1.33329e-05	-1.20723	-2.55582e-06	0.0169156	1.0687e-07	
73	83.605	1406.22	23.0604	1.3544e-05	-1.20768	-2.53139e-06	0.0168783	1.02993e-07	
74	84.611	1404.86	23.2721	1.31006e-05	-1.21737	-2.58479e-06	0.0169868	1.05156e-07	
75	78.9694	1404.42	23.1271	6.97443e-06	-1.18717	-2.72591e-06	0.0163636	9.06516e-08	
76	68.7603	1416.59	20.1742	6.21029e-06	-1.03452	-2.39045e-06	0.0142642	7.76422e-08	
77	79.7269	1407.56	22.3621	1.17037e-05	-1.16192	-2.48716e-06	0.0161461	9.60779e-08	
78	82.5484	1405.99	23.0842	1.3111e-05	-1.20092	-2.52853e-06	0.0166811	1.00216e-07	
79	100.177	1382.58	28.1907	1.52479e-05	-1.45514	-2.92357e-06	0.0201396	1.1227e-07	
80	83.6616	1405.23	22.7921	1.31025e-05	-1.19312	-2.53448e-06	0.0166441	1.04228e-07	
81	88.3472	1402.38	23.9134	1.42425e-05	-1.26194	-2.61929e-06	0.0177346	1.13516e-07	
82	83.4494	1407.4	22.8017	1.40066e-05	-1.19566	-2.47367e-06	0.0167043	1.03579e-07	
83	77.2673	1408.83	21.8571	1.1677e-05	-1.13309	-2.43172e-06	0.0157053	9.31188e-08	
84	90.6552	1399.12	24.6398	1.54797e-05	-1.29694	-2.65495e-06	0.0181788	1.14381e-07	
85	83.3388	1405.24	23.2195	1.19789e-05	-1.2157	-2.58945e-06	0.0170024	1.02725e-07	
86	73.3919	1414.65	21.043	9.89596e-06	-1.08744	-2.38746e-06	0.0150073	8.45548e-08	
87	89.8643	1398.4	24.6138	1.43091e-05	-1.29178	-2.69956e-06	0.018063	1.11865e-07	
88	87.7015	1403.83	23.5806	1.4798e-05	-1.23973	-2.56605e-06	0.017364	1.11346e-07	
89	73.051	1411.68	21.0517	1.06274e-05	-1.08521	-2.34371e-06	0.0149774	8.51541e-08	
90	82.5719	1408.34	22.7448	1.34155e-05	-1.1889	-2.47703e-06	0.0165577	1.01549e-07	
91	96.6054	1399.1	24.7652	1.67904e-05	-1.33252	-2.68968e-06	0.0189511	1.27619e-07	
92	86.6841	1404.97	23.0101	1.49888e-05	-1.21989	-2.52227e-06	0.0171642	1.11302e-07	
93	86.9665	1398.89	24.3962	1.36628e-05	-1.26775	-2.64617e-06	0.0176192	1.05541e-07	
94	75.0469	1416.34	20.339	1.2423e-05	-1.06624	-2.23144e-06	0.0148815	9.34039e-08	
95	93.2437	1398.36	24.4359	1.64419e-05	-1.30417	-2.81639e-06	0.0184885	1.28222e-07	
96	81.1491	1409.04	22.2893	1.34866e-05	-1.16538	-2.4333e-06	0.0162327	1.00445e-07	
97	82.012	1409.42	22.071	1.38414e-05	-1.15805	-2.42735e-06	0.0161734	1.03484e-07	
98	79.6855	1409.27	21.9478	1.2738e-05	-1.1506	-2.41256e-06	0.016082	9.96848e-08	
99	84.5443	1405.23	23.0987	1.37505e-05	-1.21365	-2.52139e-06	0.0169837	1.0602e-07	
100	85.3205	1405.07	23.0713	1.41739e-05	-1.21261	-2.53003e-06	0.0169831	1.08386e-07	
101	92.7485	1396.78	24.9671	1.57556e-05	-1.3159	-2.69605e-06	0.0184737	1.1797e-07	
102	78.3704	1408.72	22.1525	1.17989e-05	-1.14733	-2.44755e-06	0.0159067	9.27443e-08	
103	75.7761	1413.42	21.0154	1.1824e-05	-1.09623	-2.31681e-06	0.015263	9.16535e-08	
104	82.1952	1406.21	22.7917	1.31439e-05	-1.18794	-2.48682e-06	0.0165244	1.00938e-07	
105	71.2609	1418.06	20.0412	1.04661e-05	-1.03864	-2.26839e-06	0.0143828	8.46251e-08	
106	75.7334	1410.9	21.7058	1.07186e-05	-1.12056	-2.42684e-06	0.015489	8.82304e-08	
107	92.5185	1400.45	24.6282	1.58686e-05	-1.30507	-2.71909e-06	0.0183784	1.20964e-07	
108	80.266	1408.64	22.1389	1.28133e-05	-1.15596	-2.44217e-06	0.0161217	9.7991e-08	
109	67.2007	1419.86	19.8219	8.07424e-06	-1.01482	-2.29448e-06	0.013943	7.44948e-08	
110	87.073	1403.76	23.4811	1.47976e-05	-1.23631	-2.53174e-06	0.0172354	1.09102e-07	
111	85.064	1409.03	22.5696	1.43592e-05	-1.19459	-2.45987e-06	0.0168181	1.08202e-07	
112	67.6572	1418.18	20.1465	7.35798e-06	-1.02538	-2.34032e-06	0.0140372	7.1698e-08	
113	91.7863	1398.71	24.2455	1.60267e-05	-1.28639	-2.62032e-06	0.0181151	1.19663e-07	
114	92.0198	1397.73	24.3997	1.55017e-05	-1.29503	-2.65701e-06	0.0182804	1.18835e-07	
115	98.5693	1389.55	26.9073	1.61264e-05	-1.40095	-2.84532e-06	0.0194815	1.17387e-07	
116	80.0675	1402.93	23.5467	8.59325e-06	-1.20602	-2.76253e-06	0.0166039	9.20278e-08	
117	91.4343	1396.69	25.2367	1.42748e-05	-1.32384	-2.77403e-06	0.0185228	1.14688e-07	
118	82.2123	1408.32	22.7381	1.26941e-05	-1.18989	-2.50666e-06	0.016594	1.01274e-07	
119	78.0026	1409.47	21.972	1.14883e-05	-1.14259	-2.43721e-06	0.0158861	9.47138e-08	
120	87.1214	1400.97	23.9386	1.32071e-05	-1.25415	-2.65804e-06	0.0175323	1.09853e-07	
121	74.4808	1414.1	20.8331	1.15756e-05	-1.08213	-2.32583e-06	0.0150224	8.97366e-08	
122	82.9657	1406.92	22.7223	1.36094e-05	-1.19238	-2.49203e-06	0.0166489	1.04867e-07	
123	83.3379	1399.75	24.2227	1.1444e-05	-1.24314	-2.72434e-06	0.0171285	9.57379e-08	
124	93.9867	1397.31	24.6842	1.65772e-05	-1.31668	-2.65146e-06	0.0186224	1.24602e-07	
125	79.8616	1495.48	3.05995	-5.18574e-06	-0.209901	-8.62096e-07	0.0029825	1.2071e-08	
126	88.9063	1401.62	24.2913	1.4133e-05	-1.27615	-2.66681e-06	0.017869	1.11958e-07	
127	90.0754	1398.82	24.7622	1.43936e-05	-1.29974	-2.70749e-06	0.0181785	1.13332e-07	
128	87.0967	1406.09	22.9869	1.52741e-05	-1.22096	-2.54752e-06	0.0172078	1.16341e-07	
129	83.7151	1408.08	22.159	1.45198e-05	-1.17222	-2.41997e-06	0.016464	1.07709e-07	
130	82.4706	1406	23.0689	1.22678e-05	-1.20161	-2.5821e-06	0.0167241	9.98006e-08	
131	91.6064	1398.48	24.8045	1.54427e-05	-1.3029	-2.68954e-06	0.0182373	1.14627e-07	
132	78.5472	1408.99	22.2707	1.11097e-05	-1.15602	-2.6271e-06	0.0160573	9.8378e-08	
133	80.0915	1409.36	21.8283	1.28929e-05	-1.14533	-2.38846e-06	0.0160437	9.99853e-08	
134	79.1185	1405.52	23.3365	4.02349e-06	-1.19888	-2.93027e-06	0.0165641	9.33165e-08	
135	89.3115	1402.38	23.6663	1.54855e-05	-1.25389	-2.54999e-06	0.0176494	1.14317e-07	
136	75.1747	1414.98	20.8122	1.13772e-05	-1.08889	-2.34097e-06	0.0151907	9.44637e-08	
137	81.2223	1416.5	20.7136	1.42622e-05	-1.11079	-2.41337e-06	0.0157403	1.11632e-07	
138	87.7345	1402.79	23.4608	1.49838e-05	-1.23863	-2.52528e-06	0.0173997	1.1143e-07	
139	83.8112	1408.31	22.3777	1.45695e-05	-1.18033	-2.42047e-06	0.0165382	1.07899e-07	
140	96.2015	1392.41	26.2037	1.54485e-05	-1.37885	-2.87085e-06	0.0193461	1.21764e-07	
141	82.9502	1403.21	23.0203	1.27311e-05	-1.20214	-2.53507e-06	0.0167697	1.03376e-07	
142	75.1235	1415.83	20.6901	1.21709e-05	-1.08371	-2.27727e-06	0.0151354	9.2974e-08	
143	80.6111	1408.63	22.2009	1.29234e-05	-1.16063	-2.43069e-06	0.0161783	9.90928e-08	
144	88.8603	1402.97	23.4552	1.42506e-05	-1.21645	-2.67106e-06	0.0168631	1.07424e-07	
145	71.074	1418.75	19.4726	1.17005e-05	-1.01279	-2.15955e-06	0.0140674	8.68346e-08	
146	75.3079	1413.39	21.0621	1.17353e-05	-1.09731	-2.32537e-06	0.0152862	9.20096e-08	
147	89.182	1397.67	25.1003	1.40626e-05	-1.30661	-2.72138e-06	0.0181717	1.08537e-07	
148	82.3838	1407.25	22.4473	1.27673e-05	-1.17923	-2.48926e-06	0.0164938	1.03727e-07	
149	83.8987	1406.39	23.0514	1.38864e-05	-1.2072	-2.48635e-06	0.0168383	1.04714e-07	
150	78.4924	1408.93	21.9186	1.21865e-05	-1.13617	-2.43085e-06	0.0157499	9.40726e-08	
151	74.8666	1411.09	21.6027	1.04169e-05	-1.10878	-2.38478e-06	0.0152801	8.39228e-08	
152	93.6081	1395.72	25.1982	1.58086e-05	-1.32996	-2.72804e-06	0.0186691	1.19874e-07	
153	76.9872	1413.57	20.911	1.27487e-05	-1.10077	-2.29579e-06	0.0154251	9.77099e-08	
154	82.2955	1407.68	22.8443	1.32687e-05	-1.19323	-2.49475e-06	0.0166208	9.99082e-08	
155	86.0522	1404.76	23.1334	1.49023e-05	-1.21914	-2.46662e-06	0.0171025	1.0935e-07	
156	62.0383	1421.51	19.1824	2.39269e-06	-0.971847	-2.40015e-06	0.0132907	6.49131e-08	
157	87.6623	1404.93	23.4896	1.46336e-05	-1.24137	-2.56423e-06	0.0174482	1.11861e-07	
158	78.1268	1414.01	21.2472	1.21454e-05	-1.11949	-2.36118e-06	0.0157405	9.66107e-08	
159	86.2632	1405.42	23.0646	1.48464e-05	-1.21699	-2.49771e-06	0.017073	1.10193e-07	
160	91.2595	1397.13	24.9186	1.47139e-05	-1.31193	-2.71645e-06	0.0184035	1.16529e-07	
161	78.9467	1410.05	21.9608	1.20088e-05	-1.14228	-2.45174e-06	0.0158734	9.59434e-08	
162	76.5372	1408.94	22.0956	1.03979e-05	-1.14015	-2.50095e-06	0.0157743	9.02529e-08	
163	78.0509	1411.91	21.6274	1.23212e-05	-1.13106	-2.39019e-06	0.0157527	9.60787e-08	
164	94.1473	1396.57	25.1679	1.60663e-05	-1.33683	-2.71416e-06	0.0188171	1.21406e-07	
165	90.567	1400.69	24.528	1.4752e-05	-1.29587	-2.69207e-06	0.018222	1.14589e-07	
166	94.1682	1396.72	25.1003	1.6419e-05	-1.33287	-2.73298e-06	0.0188194	1.22884e-07	
167	78.9255	1411	21.6803	1.26261e-05	-1.13413	-2.4e-06	0.0158207	9.70866e-08	
168	77.5533	1411.51	21.5879	1.22357e-05	-1.12494	-2.38968e-06	0.0156475	9.36192e-08	
169	84.6435	1406.3	22.7331	1.39631e-05	-1.19704	-2.50711e-06	0.0167844	1.06242e-07	
170	82.9389	1407.94	22.1755	1.41627e-05	-1.16874	-2.40991e-06	0.0163851	1.04569e-07	
171	85.7912	1402.82	23.4191	1.41966e-05	-1.22824	-2.52913e-06	0.017166	1.07172e-07	
172	87.6639	1398.7	24.6351	1.31505e-05	-1.28291	-2.722e-06	0.0178564	1.08112e-07	
173	93.6109	1396.57	25.6347	1.54054e-05	-1.35312	-2.77055e-06	0.0188995	1.19182e-07	
174	102.168	1389.94	26.9197	1.66725e-05	-1.4355	-2.93224e-06	0.0203488	1.33473e-07	
175	77.188	1410.32	21.9042	1.04164e-05	-1.13284	-2.42915e-06	0.0157141	8.99643e-08	
176	88.2006	1404.61	23.4815	1.49276e-05	-1.23885	-2.5888e-06	0.0173594	1.1269e-07	
177	91.9205	1394.66	25.702	1.35939e-05	-1.34432	-2.83869e-06	0.0187665	1.14714e-07	
178	60.0274	1426.36	18.0517	-8.29901e-07	-0.91736	-2.23951e-06	0.0125462	5.52272e-08	
179	62.1384	1426.3	18.0257	8.12047e-06	-0.926557	-2.10378e-06	0.0127814	7.11238e-08	
180	88.5786	1403.81	23.6668	1.45321e-05	-1.25356	-2.60281e-06	0.0176752	1.13605e-07	
181	86.8331	1403.23	23.4957	1.45625e-05	-1.2406	-2.49462e-06	0.0174176	1.07511e-07	
182	79.6569	1404.71	23.1635	9.91459e-06	-1.19219	-2.63553e-06	0.016465	9.2384e-08	
183	79.9071	1407	22.9117	9.80291e-06	-1.1862	-2.59621e-06	0.016443	9.45094e-08	
184	86.6959	1404.13	23.2317	1.44406e-05	-1.22962	-2.5444e-06	0.0173021	1.11477e-07	
185	50.0567	1440.06	15.1096	4.14852e-06	-0.769071	-1.91102e-06	0.010509	5.18227e-08	
186	82.9368	1401.67	23.6497	1.25899e-05	-1.21862	-2.56537e-06	0.0168247	9.57077e-08	
187	90.242	1397.82	24.5212	1.44108e-05	-1.29073	-2.70361e-06	0.0181144	1.14425e-07	
188	93.8427	1394.8	25.1572	1.60621e-05	-1.33034	-2.68741e-06	0.0187177	1.20299e-07	
189	82.7577	1403.49	23.5624	1.19702e-05	-1.22273	-2.63628e-06	0.0169738	1.00636e-07	
190	79.3636	1411.26	22.2846	1.16626e-05	-1.1575	-2.49546e-06	0.016056	9.44875e-08	
191	92.5341	1405.58	23.2726	1.57476e-05	-1.23737	-2.56114e-06	0.0174696	1.17434e-07	
192	88.0199	1404.64	23.5024	1.48835e-05	-1.23997	-2.53978e-06	0.017399	1.12089e-07	
193	80.3231	1409.64	21.9645	1.30545e-05	-1.14862	-2.42441e-06	0.0160145	9.93199e-08	
194	63.7305	1423.52	18.8727	7.07192e-06	-0.963156	-2.20116e-06	0.0131872	6.95207e-08	
195	86.1194	1408.25	22.8236	1.46092e-05	-1.21334	-2.49586e-06	0.0171215	1.11145e-07	
196	83.1665	1408.12	22.2268	1.41415e-05	-1.1744	-2.42228e-06	0.016501	1.06469e-07	
197	80.2246	1411.32	22.075	1.22437e-05	-1.15558	-2.46232e-06	0.0161304	9.96437e-08	
198	76.053	1410.18	21.438	1.14701e-05	-1.11019	-2.36568e-06	0.0154055	9.075e-08	
199	81.5231	1404.33	23.0981	1.09919e-05	-1.19472	-2.58359e-06	0.0165532	9.59e-08	
200	88.0593	1404.87	23.4141	1.51714e-05	-1.24248	-2.53854e-06	0.0174805	1.13671e-07	
201	78.5282	1407.58	22.1433	1.0898e-05	-1.14965	-2.47816e-06	0.0159693	9.55767e-08	
202	83.9493	1405.48	22.8445	1.38475e-05	-1.19961	-2.50091e-06	0.0168052	1.05776e-07	
203	102.142	1394.35	25.984	1.76132e-05	-1.39891	-2.81944e-06	0.0199576	1.34562e-07	
204	91.9934	1398.4	24.7563	1.50797e-05	-1.30655	-2.69471e-06	0.0183535	1.17346e-07	
205	83.5594	1406.88	23.0292	1.26197e-05	-1.20526	-2.53851e-06	0.0168133	1.03896e-07	
206	87.2848	1401.34	23.6961	1.44692e-05	-1.24542	-2.58614e-06	0.017466	1.10066e-07	
207	82.9762	1407.54	22.2687	1.41061e-05	-1.17351	-2.42645e-06	0.0164438	1.05653e-07	
208	89.9798	1403.45	23.6049	1.57245e-05	-1.25936	-2.57123e-06	0.0178314	1.18166e-07	
209	74.42	1412.27	21.2516	9.66521e-06	-1.10005	-2.43222e-06	0.0152527	8.79861e-08	
210	71.5722	1415.95	20.2294	1.03716e-05	-1.04789	-2.28374e-06	0.014534	8.4047e-08	
211	88.3012	1400.33	24.1008	1.47567e-05	-1.26721	-2.60553e-06	0.0177519	1.10802e-07	
212	94.5881	1397.68	24.9912	1.61171e-05	-1.32927	-2.71442e-06	0.0187917	1.21915e-07	
213	71.468	1416.65	20.3442	9.91556e-06	-1.05294	-2.29111e-06	0.0145908	8.45135e-08	
214	87.1491	1400.7	23.7519	1.48105e-05	-1.2494	-2.54815e-06	0.0174992	1.1077e-07	
215	90.9411	1397.57	25.0062	1.2637e-05	-1.30835	-2.71344e-06	0.0182833	1.09531e-07	
216	71.3668	1417.63	19.9509	1.11039e-05	-1.03744	-2.23418e-06	0.0144104	8.60323e-08	
217	79.7703	1462.08	10.3856	5.4865e-06	-0.586621	-1.60433e-06	0.00859052	7.0402e-08	
218	88.0156	1399.3	24.615	1.35514e-05	-1.2797	-2.72527e-06	0.0178013	1.06815e-07	
219	56.9945	1429.94	17.2745	4.31872e-06	-0.879439	-2.11889e-06	0.0120507	6.0373e-08	
220	81.7329	1408.26	22.1865	1.33839e-05	-1.16821	-2.43689e-06	0.0164065	1.02495e-07	
221	89.0562	1398.37	24.5099	1.39304e-05	-1.28481	-2.70643e-06	0.0179831	1.12787e-07	
222	88.7922	1403.75	23.7291	1.50629e-05	-1.25332	-2.5873e-06	0.0176164	1.14071e-07	
223	90.0015	1398.38	24.543	1.49892e-05	-1.28747	-2.66802e-06	0.0180137	1.13833e-07	
224	37.8808	1454.93	11.3828	3.02531e-06	-0.577901	-1.46812e-06	0.00788234	3.55985e-08	
225	70.4586	1415.51	20.7971	9.09467e-06	-1.06367	-2.37698e-06	0.0146121	7.7811e-08	
226	91.684	1398.33	24.7743	1.46173e-05	-1.3087	-2.71421e-06	0.0184264	1.16224e-07	
227	91.1609	1399.87	24.5893	1.5526e-05	-1.2996	-2.63377e-06	0.0182698	1.16925e-07	
228	68.341	1419.91	19.3924	1.05102e-05	-1.00109	-2.15979e-06	0.0138393	7.9237e-08	
229	95.9059	1394.56	25.5036	1.55868e-05	-1.35347	-2.80845e-06	0.0191141	1.25006e-07	
230	85.0771	1406.9	23.175	1.41917e-05	-1.21492	-2.5193e-06	0.0169882	1.07119e-07	
231	82.0374	1407.21	22.8517	1.28489e-05	-1.19531	-2.53033e-06	0.0167043	1.02089e-07	
232	66.1725	1423.9	18.3597	1.01249e-05	-0.953327	-2.07496e-06	0.0132351	8.0879e-08	
233	202.554	1302.78	47.0305	2.13781e-05	-2.371	-4.10553e-06	0.0323494	1.2716e-07	
234	85.5292	1402.67	23.3369	1.39964e-05	-1.224	-2.55487e-06	0.0171341	1.06953e-07	
235	88.5393	1404.55	23.009	1.54658e-05	-1.22844	-2.49522e-06	0.0174257	1.16883e-07	
236	52.6908	1434.92	16.1824	2.96956e-06	-0.819114	-1.99725e-06	0.0111706	5.3113e-08	
237	88.4143	1402.32	23.8501	1.43653e-05	-1.25629	-2.61035e-06	0.0176104	1.11667e-07	
238	85.6387	1406.81	22.7952	1.44267e-05	-1.20459	-2.49211e-06	0.0169572	1.09511e-07	
239	90.4262	1397.89	24.871	1.4691e-05	-1.30491	-2.72948e-06	0.0182646	1.13477e-07	
240	83.7826	1404.29	23.0215	1.37275e-05	-1.2023	-2.47187e-06	0.0167624	1.0254e-07	
241	67.8956	1419.51	19.8216	9.22578e-06	-1.02285	-2.26878e-06	0.0140881	7.83137e-08	
242	85.9075	1400.72	23.9019	1.29812e-05	-1.24705	-2.65719e-06	0.0174047	1.06591e-07	
243	76.8568	1416.39	20.7939	1.25138e-05	-1.0972	-2.30354e-06	0.0154096	9.67965e-08	
244	74.7897	1415.71	20.7992	1.15521e-05	-1.08289	-2.28791e-06	0.0150448	9.04043e-08	
245	85.5655	1403.39	23.3188	1.43372e-05	-1.22228	-2.52899e-06	0.0170783	1.07821e-07	
246	86.4148	1402.84	23.9034	1.19056e-05	-1.24976	-2.69337e-06	0.0174466	1.09619e-07	
247	64.8503	1422.08	19.1754	7.10389e-06	-0.98196	-2.25131e-06	0.0134914	7.19228e-08	
248	87.8452	1403.64	23.5874	1.50024e-05	-1.2487	-2.56613e-06	0.017581	1.13687e-07	
249	94.9578	1399.99	24.81	1.64298e-05	-1.32678	-2.70042e-06	0.0188004	1.25489e-07	
250	98.4193	1401.55	23.7536	1.34122e-05	-1.22233	-2.58265e-06	0.0168175	1.03606e-07	
251	103.466	1388.36	27.0035	1.77379e-05	-1.44145	-2.91464e-06	0.0204647	1.35273e-07	
252	92.5618	1403.34	23.8398	1.58803e-05	-1.27428	-2.60729e-06	0.0180197	1.22237e-07	
253	86.3217	1402.63	23.6011	1.40167e-05	-1.23731	-2.58504e-06	0.017307	1.0865e-07	
254	67.0872	1424.41	18.4564	1.07498e-05	-0.96786	-2.05348e-06	0.0135318	8.15158e-08	
255	85.4528	1404.56	23.0326	1.44822e-05	-1.21012	-2.50375e-06	0.0169267	1.07853e-07	
256	74.3701	1414.97	20.6563	1.1615e-05	-1.07687	-2.29191e-06	0.0150108	8.9845e-08	
257	81.1602	1410.96	21.9646	1.35979e-05	-1.15871	-2.45756e-06	0.0162581	1.05772e-07	
258	84.8424	1406.64	22.6883	1.43557e-05	-1.198	-2.48293e-06	0.0168303	1.07685e-07	
259	78.6522	1410.32	22.0887	1.15465e-05	-1.14805	-2.48647e-06	0.0159724	9.58797e-08	
260	104.571	1388.77	27.0333	1.75117e-05	-1.4491	-2.94607e-06	0.0206401	1.36593e-07	
261	91.386	1396.93	24.914	1.49393e-05	-1.31146	-2.70326e-06	0.0184094	1.16166e-07	
262	78.8536	1407.09	22.52	1.05602e-05	-1.16386	-2.52822e-06	0.0161218	9.22078e-08	
263	68.6989	1414.8	20.8753	4.2705e-06	-1.0606	-2.49444e-06	0.0144865	7.14688e-08	
264	90.068	1403.16	23.9824	1.51852e-05	-1.26956	-2.62449e-06	0.0178561	1.16196e-07	
265	89.9836	1400.3	23.9449	1.5627e-05	-1.26956	-2.58542e-06	0.0178791	1.18229e-07	
266	82.2956	1403.38	22.8619	1.31803e-05	-1.19312	-2.52758e-06	0.0166148	1.03269e-07	
267	78.0477	1411.67	21.9346	1.10293e-05	-1.1427	-2.47108e-06	0.0158992	9.39401e-08	
268	87.6016	1399.65	24.1073	1.36244e-05	-1.26462	-2.62387e-06	0.0177289	1.07612e-07	
269	75.0964	1414.78	20.7939	1.17746e-05	-1.08654	-2.30819e-06	0.0151364	9.14096e-08	
270	89.4396	1401.87	23.6819	1.49405e-05	-1.25728	-2.58007e-06	0.0177652	1.16039e-07	
271	86.4856	1402.69	23.4337	1.37858e-05	-1.22375	-2.43685e-06	0.0170639	1.00176e-07	
272	89.2964	1404.48	23.6645	1.52981e-05	-1.25364	-2.57207e-06	0.0176498	1.15212e-07	
273	88.7302	1398.08	24.5548	1.41662e-05	-1.28342	-2.69955e-06	0.0179251	1.11077e-07	
274	65.9192	1418.52	20.061	5.79816e-06	-1.02555	-2.38972e-06	0.0141005	7.26992e-08	
275	86.2776	1396.57	25.1777	9.32611e-06	-1.29903	-2.88245e-06	0.0179831	1.03917e-07	
276	92.154	1396.05	25.4475	1.49809e-05	-1.33707	-2.77337e-06	0.0187439	1.16219e-07	
277	87.7522	1404.6	23.662	1.4501e-05	-1.24805	-2.57252e-06	0.0175358	1.11517e-07	
278	85.9017	1403.34	23.7973	1.32205e-05	-1.24094	-2.59581e-06	0.0172857	1.05725e-07	
279	75.8497	1413.68	21.0464	1.27442e-05	-1.09711	-2.2813e-06	0.0152614	9.33074e-08	
280	67.6646	1417.35	19.7885	7.90112e-06	-1.01499	-2.3095e-06	0.0139814	7.62943e-08	
281	85.4464	1405.58	23.2192	1.37317e-05	-1.22079	-2.5425e-06	0.0171051	1.08433e-07	
282	89.2961	1402.52	23.8744	1.50157e-05	-1.26321	-2.61108e-06	0.0177706	1.13768e-07	
283	90.4409	1400.68	24.6392	1.35197e-05	-1.30067	-2.7208e-06	0.0182638	1.1467e-07	
284	86.4683	1404.94	23.5217	1.31855e-05	-1.23767	-2.52671e-06	0.0173522	1.04777e-07	
285	72.6724	1417.37	20.1621	1.14783e-05	-1.04785	-2.2477e-06	0.0145419	8.72603e-08	
286	82.9922	1402.59	23.801	1.17181e-05	-1.23112	-2.65582e-06	0.0170677	9.97508e-08	
287	90.228	1402.31	24.1067	1.5711e-05	-1.27493	-2.56725e-06	0.0179139	1.15601e-07	
288	88.1857	1401.97	23.6812	1.47853e-05	-1.25321	-2.58328e-06	0.0176428	1.12631e-07	
289	89.4402	1400.85	24.0485	1.51084e-05	-1.27026	-2.61464e-06	0.0178267	1.14694e-07	
290	83.6582	1405.44	23.2496	1.22912e-05	-1.21497	-2.59121e-06	0.0169402	1.04939e-07	
291	100.035	1398.55	25.0872	1.69659e-05	-1.35586	-2.73385e-06	0.0193829	1.32426e-07	
292	91.0614	1400.28	24.4844	1.54609e-05	-1.29579	-2.66332e-06	0.0182379	1.17518e-07	
293	74.5105	1415.56	20.451	1.2354e-05	-1.07194	-2.23879e-06	0.014969	9.25817e-08	
294	72.1821	1414.34	20.7329	1.04798e-05	-1.07466	-2.32319e-06	0.0149138	8.57926e-08	
295	78.0364	1408.06	22.3256	1.07343e-05	-1.15657	-2.49857e-06	0.0160612	9.40032e-08	
296	71.936	1416.42	20.4808	1.01893e-05	-1.06245	-2.31808e-06	0.0147373	8.63454e-08	
297	95.5356	1396.43	25.3351	1.64981e-05	-1.34971	-2.73455e-06	0.0190865	1.25313e-07	
298	89.5817	1401.81	24.2242	1.52353e-05	-1.27688	-2.61043e-06	0.0179162	1.13543e-07	
299	68.565	1423.33	18.8292	1.14838e-05	-0.988764	-2.07704e-06	0.0138012	8.51308e-08	
300	80.3098	1410.82	21.9338	1.3435e-05	-1.15041	-2.42116e-06	0.0160787	1.01735e-07	
301	77.4492	1413.04	21.4778	1.22447e-05	-1.12191	-2.36411e-06	0.0156416	9.44275e-08	
302	85.9684	1404.25	23.4605	1.31662e-05	-1.23188	-2.6004e-06	0.0172288	1.07831e-07	
303	87.2894	1403.42	23.6736	1.48535e-05	-1.24509	-2.54112e-06	0.0174478	1.10706e-07	
304	82.247	1412.02	21.914	1.26238e-05	-1.15096	-2.62435e-06	0.0161003	1.06293e-07	
305	83.504	1407.89	22.3736	1.41181e-05	-1.18229	-2.45036e-06	0.0166088	1.06567e-07	
306	68.387	1420.33	19.7364	8.57545e-06	-1.02024	-2.26318e-06	0.0140876	8.03789e-08	
307	91.3774	1396.45	25.1806	1.40591e-05	-1.31852	-2.77763e-06	0.0184362	1.13549e-07	
308	90.102	1401.58	23.6272	1.40989e-05	-1.23327	-2.54868e-06	0.0171458	1.06423e-07	
309	89.797	1399.32	24.3312	1.49671e-05	-1.28176	-2.64423e-06	0.0179607	1.13674e-07	
310	85.1666	1404.24	23.5247	1.34854e-05	-1.2273	-2.59534e-06	0.0171009	1.05332e-07	
311	86.9294	1404.31	23.412	1.43146e-05	-1.23384	-2.5669e-06	0.0173205	1.11003e-07	
312	68.3028	1418.4	19.8612	7.88314e-06	-1.02142	-2.29555e-06	0.0140984	7.89023e-08	
313	82.4349	1408.93	22.526	1.34914e-05	-1.18088	-2.46933e-06	0.0165058	1.02952e-07	
314	76.1657	1414.43	21.1628	1.16995e-05	-1.10587	-2.34355e-06	0.0154369	9.29251e-08	
315	85.5252	1404.91	23.1608	1.40074e-05	-1.21924	-2.5356e-06	0.0171053	1.07906e-07	
316	85.7003	1407.88	22.6926	1.39489e-05	-1.19585	-2.40787e-06	0.0167648	1.05259e-07	
317	88.7886	1400.76	24.17	1.39081e-05	-1.27521	-2.62463e-06	0.0179155	1.12735e-07	
318	90.7835	1398.39	24.8901	1.50629e-05	-1.30724	-2.68206e-06	0.0183052	1.14527e-07	
319	82.3156	1408.35	22.559	1.32349e-05	-1.18411	-2.52954e-06	0.0165401	1.02788e-07	
320	102.971	1386	27.6841	1.71101e-05	-1.45986	-2.92029e-06	0.0205235	1.26033e-07	
321	93.2086	1396.39	24.8787	1.54242e-05	-1.3169	-2.70842e-06	0.0185477	1.18694e-07	
322	83.1795	1408.95	22.6872	1.32353e-05	-1.19529	-2.45878e-06	0.0167558	1.04211e-07	
323	82.8838	1406.7	22.8294	1.35216e-05	-1.19475	-2.47958e-06	0.0166422	1.03477e-07	
324	78.9144	1411.35	21.2335	1.33538e-05	-1.11837	-2.33485e-06	0.0156713	9.97051e-08	
325	90.5836	1401.64	24.2498	1.48915e-05	-1.28417	-2.6821e-06	0.0180796	1.17832e-07	
326	85.123	1405.78	23.3016	1.38207e-05	-1.21959	-2.55336e-06	0.0170233	1.05795e-07	
327	85.8079	1399.94	24.4019	1.07207e-05	-1.26398	-2.76262e-06	0.0175593	1.04808e-07	
328	85.1269	1409.15	22.284	1.45382e-05	-1.18288	-2.42044e-06	0.0166807	1.0967e-07	
329	82.8275	1406.34	22.6695	1.30286e-05	-1.18956	-2.51052e-06	0.0166358	1.04577e-07	
330	84.9094	1404.03	23.0337	1.44888e-05	-1.2115	-2.49578e-06	0.0169809	1.07815e-07	
331	86.6764	1404.63	23.237	1.48527e-05	-1.22605	-2.515e-06	0.0172202	1.10575e-07	
332	102.341	1395.32	25.6603	1.74974e-05	-1.38848	-2.78517e-06	0.0198945	1.35693e-07	
333	76.6366	1411.07	21.8474	1.02903e-05	-1.13382	-2.47844e-06	0.0157647	9.13181e-08	
334	96.0514	1393.79	26.0782	1.52283e-05	-1.37615	-2.86431e-06	0.019373	1.21753e-07	
335	90.2481	1400.31	24.4774	1.44368e-05	-1.29051	-2.69188e-06	0.018157	1.14134e-07	
336	80.6313	1410.45	21.9268	1.34913e-05	-1.15127	-2.39111e-06	0.016094	1.01153e-07	
337	95.8466	1400.37	24.4877	1.66006e-05	-1.31358	-2.67006e-06	0.0186862	1.27138e-07	
338	88.9224	1402.97	23.7284	1.5178e-05	-1.25631	-2.57713e-06	0.0177003	1.14969e-07	
339	78.8026	1408.51	22.06	1.09227e-05	-1.14764	-2.49086e-06	0.0159768	9.59589e-08	
340	83.9205	1406.53	22.6345	1.40384e-05	-1.19167	-2.47497e-06	0.0167169	1.06174e-07	
341	80.7302	1409.13	22.016	1.32505e-05	-1.1571	-2.41246e-06	0.0161955	1.00569e-07	
342	87.417	1402.76	23.6076	1.48476e-05	-1.24518	-2.56726e-06	0.017477	1.11984e-07	
343	73.3492	1412.5	21.1245	8.766e-06	-1.08567	-2.44388e-06	0.0149903	8.43643e-08	
344	76.5575	1411.25	21.4106	1.21937e-05	-1.11631	-2.36647e-06	0.0155371	9.34484e-08	
345	72.7943	1415.92	20.8698	9.62589e-06	-1.07975	-2.35344e-06	0.0149484	8.62235e-08	
346	85.5562	1405	23.7483	1.33333e-05	-1.2422	-2.62729e-06	0.0173623	1.05051e-07	
347	81.7263	1403.39	23.1084	1.19951e-05	-1.2011	-2.54782e-06	0.0167111	9.76628e-08	
348	86.9168	1398.93	24.3877	1.2985e-05	-1.27042	-2.71285e-06	0.0177271	1.07296e-07	
349	92.6483	1399.5	24.4532	1.55946e-05	-1.29951	-2.64702e-06	0.0183891	1.19725e-07	
350	74.2441	1413.41	21.0674	8.83355e-06	-1.07774	-2.34423e-06	0.0148168	7.6799e-08	
351	81.9302	1409.01	22.1709	1.36459e-05	-1.16546	-2.42753e-06	0.0163228	1.03235e-07	
352	83.47	1407.87	22.5302	1.34073e-05	-1.18562	-2.48055e-06	0.0166407	1.06399e-07	
353	84.2409	1406.57	22.831	1.41747e-05	-1.19878	-2.47475e-06	0.016759	1.05699e-07	
354	91.9535	1397.84	24.844	1.53222e-05	-1.31091	-2.69196e-06	0.0184262	1.1695e-07	
355	57.6476	1428.64	17.7275	2.63281e-06	-0.894861	-2.26398e-06	0.0121981	5.87409e-08	
356	75.3107	1408.3	22.0582	9.19715e-06	-1.13585	-2.52014e-06	0.0156981	8.63821e-08	
357	75.4171	1412.09	21.4813	1.16066e-05	-1.10991	-2.36142e-06	0.0153505	8.90042e-08	
358	83.2108	1406.22	22.6193	1.28781e-05	-1.19015	-2.52737e-06	0.016709	1.04475e-07	
359	73.7243	1416.68	20.8039	1.10216e-05	-1.08017	-2.33804e-06	0.0149879	8.83343e-08	
360	85.8981	1406.37	23.118	1.42506e-05	-1.22436	-2.50972e-06	0.0172037	1.10669e-07	
361	86.1209	1402.58	23.7815	1.34436e-05	-1.2499	-2.61712e-06	0.0174884	1.09024e-07	
362	75.961	1412.82	21.2847	1.12774e-05	-1.11373	-2.37091e-06	0.0156004	9.30125e-08	
363	96.1672	1393.17	25.9443	1.57795e-05	-1.36949	-2.78754e-06	0.0192386	1.22626e-07	
364	84.7573	1400.09	24.2322	1.28458e-05	-1.25844	-2.68754e-06	0.0174997	1.02373e-07	
365	88.0053	1399.22	24.2067	1.406e-05	-1.26892	-2.64358e-06	0.0177487	1.11729e-07	
366	84.6844	1401.4	23.7797	1.3481e-05	-1.2376	-2.58623e-06	0.0172137	1.04298e-07	
367	85.4475	1401.06	23.5564	1.31707e-05	-1.23342	-2.59876e-06	0.017256	1.06521e-07	
368	78.6917	1411.83	21.9423	1.14092e-05	-1.14286	-2.46509e-06	0.0159263	9.70768e-08	
369	68.4291	1418.47	19.9906	8.47012e-06	-1.02545	-2.30655e-06	0.0141469	7.69254e-08	
370	83.2044	1402.97	23.2946	1.35601e-05	-1.21506	-2.51869e-06	0.0169387	1.03227e-07	
371	72.5552	1420.51	19.6296	1.22738e-05	-1.03486	-2.22127e-06	0.0145088	9.32343e-08	
372	72.247	1411.24	21.6966	7.62644e-06	-1.10589	-2.53158e-06	0.0151418	7.88845e-08	
373	53.4233	1435.24	16.1402	4.45157e-06	-0.820819	-1.96798e-06	0.0112266	5.42778e-08	
374	76.9066	1412.25	21.432	1.16348e-05	-1.11274	-2.34957e-06	0.0154782	9.03898e-08	
375	95.0339	1389.69	27.0395	1.13915e-05	-1.40052	-2.99184e-06	0.0194398	1.1244e-07	
376	93.9257	1397.91	24.9444	1.60197e-05	-1.32491	-2.71648e-06	0.0187146	1.21817e-07	
377	85.806	1404.52	23.289	1.39023e-05	-1.22774	-2.55468e-06	0.0172376	1.09761e-07	
378	86.9645	1399.88	24.177	1.34997e-05	-1.26265	-2.64442e-06	0.0175838	1.07685e-07	
379	87.2923	1402.44	23.6417	1.49485e-05	-1.24543	-2.54564e-06	0.0174627	1.11741e-07	
380	89.558	1401.79	24.077	1.52015e-05	-1.2734	-2.60947e-06	0.0179098	1.14331e-07	
381	78.1401	1408.46	22.3245	9.85035e-06	-1.15508	-2.53929e-06	0.016037	9.26662e-08	
382	72.6778	1414.88	20.444	1.07976e-05	-1.05839	-2.29485e-06	0.0146537	8.68257e-08	
383	89.5106	1400.23	23.8488	1.54996e-05	-1.2629	-2.57797e-06	0.0177954	1.16401e-07	
384	89.6802	1402.37	24.0028	1.50123e-05	-1.2734	-2.64653e-06	0.0179508	1.17052e-07	
385	67.087	1421.55	19.2564	7.52277e-06	-0.997116	-2.22695e-06	0.0138269	7.98098e-08	
386	74.0218	1413.31	21.1105	1.04471e-05	-1.09709	-2.37032e-06	0.0152506	8.78374e-08	
387	92.1001	1402.26	24.2254	1.58477e-05	-1.29359	-2.65771e-06	0.0183038	1.21977e-07	
388	70.2399	1417.95	20.1696	9.58182e-06	-1.04439	-2.30166e-06	0.0144886	8.2172e-08	
389	74.842	1418.28	20.134	1.2593e-05	-1.06299	-2.20116e-06	0.014931	9.45091e-08	
390	78.6146	1409.23	22.0518	1.19433e-05	-1.1453	-2.45161e-06	0.015919	9.53194e-08	
391	86.9996	1400.62	24.0856	1.38456e-05	-1.25929	-2.63089e-06	0.0175526	1.08212e-07	
392	86.5682	1399.77	24.2616	1.35417e-05	-1.2671	-2.64363e-06	0.0176772	1.08025e-07	
393	76.9321	1404.02	23.1209	5.43739e-06	-1.18218	-2.74807e-06	0.0162774	8.96226e-08	
394	86.636	1402.03	24.1081	1.07096e-05	-1.25721	-2.74943e-06	0.0175318	1.09125e-07	
395	85.8824	1405.93	23.1174	1.43287e-05	-1.22303	-2.51487e-06	0.0172097	1.09929e-07	
396	84.8255	1404.3	23.2572	1.42126e-05	-1.2156	-2.50722e-06	0.0169479	1.04815e-07	
397	73.7019	1416.77	20.1348	1.214e-05	-1.05531	-2.2237e-06	0.0147371	9.14437e-08	
398	72.2711	1422.15	19.3875	8.53952e-06	-1.00602	-2.3776e-06	0.0139322	8.23773e-08	
399	77.6526	1412.21	21.4452	1.19513e-05	-1.12147	-2.4014e-06	0.015659	9.57501e-08	
400	75.6392	1411.57	21.5273	1.07319e-05	-1.11186	-2.4314e-06	0.0153825	8.86326e-08	
401	79.8	1412.01	21.4151	1.35606e-05	-1.13038	-2.32131e-06	0.0158822	1.02662e-07	
402	68.4088	1420.33	19.6294	9.44225e-06	-1.01196	-2.21837e-06	0.0139871	7.83964e-08	
403	79.3684	1411.8	21.7636	1.25993e-05	-1.14442	-2.40354e-06	0.016025	1.00683e-07	
404	66.3528	1416.83	20.4236	2.80644e-06	-1.0356	-2.49547e-06	0.0141539	6.92472e-08	
405	84.8622	1402.97	23.7084	1.31157e-05	-1.2357	-2.61313e-06	0.017214	1.0534e-07	
406	93.9562	1398.4	24.8716	1.58874e-05	-1.32177	-2.70946e-06	0.0186884	1.22082e-07	
407	91.4778	1400.38	24.3994	1.53712e-05	-1.29325	-2.66392e-06	0.0182391	1.17362e-07	
408	78.5316	1413.29	21.2001	1.29956e-05	-1.11423	-2.32542e-06	0.0156025	9.88977e-08	
409	76.3797	1416.92	20.4649	1.2625e-05	-1.08252	-2.25052e-06	0.0152603	9.68537e-08	
410	87.4204	1400.99	23.8764	1.4588e-05	-1.2544	-2.597e-06	0.017565	1.10682e-07	
411	82.6396	1406	22.7597	1.31448e-05	-1.18941	-2.50967e-06	0.0165983	1.01714e-07	
412	89.8824	1400.03	24.5108	1.30029e-05	-1.28826	-2.73659e-06	0.0180886	1.13952e-07	
413	94.953	1394.13	25.4936	1.5391e-05	-1.34801	-2.76783e-06	0.0189826	1.21979e-07	
414	84.561	1406.69	22.7002	1.41607e-05	-1.20018	-2.45221e-06	0.0169182	1.07016e-07	
415	61.7321	1423.66	18.5724	6.62609e-06	-0.944331	-2.17042e-06	0.0129361	6.44209e-08	
416	90.0223	1403.41	23.6208	1.54631e-05	-1.25855	-2.58274e-06	0.0177785	1.17307e-07	
417	84.0258	1405.25	23.1177	1.32359e-05	-1.20813	-2.50808e-06	0.0168577	1.01922e-07	
418	88.5221	1400	23.9657	1.45957e-05	-1.26227	-2.61666e-06	0.0177474	1.12519e-07	
419	84.3302	1404.04	23.3009	1.26965e-05	-1.22316	-2.60012e-06	0.0171444	1.05609e-07	
420	84.1649	1406.62	23.1143	1.33499e-05	-1.20957	-2.54396e-06	0.0168812	1.05007e-07	
421	80.5781	1407.48	22.4542	1.16753e-05	-1.17022	-2.53304e-06	0.0163187	9.83761e-08	
422	87.2349	1402.02	23.845	1.46824e-05	-1.25365	-2.59736e-06	0.0175639	1.10445e-07	
423	89.4455	1400.79	24.1958	1.4362e-05	-1.27469	-2.6485e-06	0.0179058	1.13528e-07	
424	75.9399	1414.59	20.6982	1.28855e-05	-1.08443	-2.24618e-06	0.0151427	9.50386e-08	
425	85.7117	1407.35	22.9911	1.45379e-05	-1.21528	-2.49143e-06	0.0170962	1.09287e-07	
426	81.3721	1407.74	22.6771	1.24828e-05	-1.18532	-2.51006e-06	0.0165439	1.00086e-07	
427	86.4174	1405.99	23.4057	1.39618e-05	-1.23585	-2.50122e-06	0.0172861	1.10322e-07	
428	80.5352	1408.61	21.9009	1.31454e-05	-1.14969	-2.40475e-06	0.0160902	1.01875e-07	
429	85.6291	1405.47	23.2314	1.45903e-05	-1.2201	-2.52035e-06	0.0170738	1.0795e-07	
430	67.1731	1419.47	19.6346	7.8422e-06	-1.00551	-2.27697e-06	0.013848	7.33325e-08	
431	93.4768	1399.48	24.7591	1.60886e-05	-1.3149	-2.68282e-06	0.0185645	1.21424e-07	
432	77.4318	1407.66	22.0735	1.19832e-05	-1.14494	-2.424e-06	0.0158939	9.43063e-08	
433	87.7762	1404.73	23.1053	1.49441e-05	-1.22155	-2.52057e-06	0.0171725	1.11106e-07	
434	83.0577	1407.08	22.5012	1.35186e-05	-1.1814	-2.4436e-06	0.0165406	1.04407e-07	
435	94.6082	1399.31	24.8152	1.63029e-05	-1.3259	-2.68288e-06	0.0188132	1.23721e-07	
436	89.201	1404.13	23.4498	1.5419e-05	-1.2457	-2.5516e-06	0.017572	1.15381e-07	
437	85.4586	1403.9	23.2398	1.41407e-05	-1.22246	-2.51392e-06	0.0171404	1.07568e-07	
438	80.3093	1406.83	22.9605	9.55738e-06	-1.19004	-2.61496e-06	0.016543	9.72146e-08	
439	71.3677	1431.02	17.9489	1.19856e-05	-0.966566	-2.23003e-06	0.0137406	1.00832e-07	
440	78.3831	1412.91	21.2172	1.27965e-05	-1.11691	-2.34194e-06	0.0156743	9.83536e-08	
441	84.0075	1404.42	23.0594	1.38626e-05	-1.20646	-2.5063e-06	0.0168427	1.04978e-07	
442	87.5527	1406.24	22.8327	1.4604e-05	-1.22043	-2.53843e-06	0.0173149	1.17402e-07	
443	81.4132	1408.42	22.0611	1.35979e-05	-1.15885	-2.41362e-06	0.0162199	1.0161e-07	
444	84.1624	1407.39	22.6069	1.43617e-05	-1.1895	-2.45644e-06	0.0166703	1.05452e-07	
445	80.2177	1409.69	21.9861	1.30268e-05	-1.15557	-2.43207e-06	0.0161897	1.01226e-07	
446	90.0181	1398.13	24.6615	1.49325e-05	-1.29299	-2.66848e-06	0.0180865	1.12679e-07	
447	89.2184	1397.78	24.9556	1.23796e-05	-1.30554	-2.78048e-06	0.0182804	1.10982e-07	
448	77.8739	1408.13	22.2399	9.33694e-06	-1.15125	-2.53616e-06	0.0159858	9.44415e-08	
449	81.4069	1408.13	22.3028	1.32499e-05	-1.17127	-2.43235e-06	0.0163919	1.02211e-07	
450	88.0696	1403.19	23.4899	1.46978e-05	-1.2431	-2.57263e-06	0.0175251	1.12897e-07	
451	78.0499	1413.38	21.3017	1.30515e-05	-1.11627	-2.3371e-06	0.0155976	9.71912e-08	
452	83.3492	1403.74	23.4246	1.26467e-05	-1.21823	-2.60198e-06	0.0169499	1.01665e-07	
453	82.9835	1459.38	10.4365	7.43636e-06	-0.586278	-1.79008e-06	0.00849885	9.08719e-08	
454	82.7735	1409.78	22.497	1.36311e-05	-1.18696	-2.47377e-06	0.0166837	1.04189e-07	
455	91.2849	1402.11	24.4369	1.54861e-05	-1.29274	-2.64164e-06	0.0181867	1.16356e-07	
456	86.572	1403.57	23.3785	1.42291e-05	-1.23315	-2.58706e-06	0.0173343	1.12244e-07	
457	70.1749	1416.9	20.2587	1.02543e-05	-1.04549	-2.26417e-06	0.0144507	8.26398e-08	
458	91.8292	1399.7	23.8623	1.55196e-05	-1.26391	-2.60509e-06	0.0177944	1.17253e-07	
459	78.4926	1412.62	21.3422	1.24898e-05	-1.12013	-2.36415e-06	0.0156825	9.77719e-08	
460	73.0426	1416.82	20.4905	1.1481e-05	-1.06695	-2.30226e-06	0.0148621	8.91132e-08	
461	83.5072	1409.39	22.5823	1.35624e-05	-1.18953	-2.50325e-06	0.0166817	1.06352e-07	
462	89.5165	1402.11	23.7619	1.55021e-05	-1.26048	-2.56783e-06	0.017779	1.16086e-07	
463	85.2615	1406.16	23.0118	1.34383e-05	-1.21478	-2.52923e-06	0.0170874	1.07012e-07	
464	77.6123	1410.21	21.6718	1.20637e-05	-1.12619	-2.40403e-06	0.0156221	9.48237e-08	
465	89.9677	1397.71	24.6806	1.43939e-05	-1.29305	-2.70545e-06	0.0180792	1.13433e-07	
466	84.8221	1409.51	22.2996	1.40129e-05	-1.18467	-2.44137e-06	0.0167426	1.09548e-07	
467	72.0567	1415.21	20.7641	8.91861e-06	-1.07497	-2.34902e-06	0.0148831	8.51263e-08	
468	86.6555	1401.4	24.0785	1.33581e-05	-1.25914	-2.64573e-06	0.0175556	1.06959e-07	
469	86.9463	1405.36	23.4915	1.44768e-05	-1.23937	-2.56435e-06	0.0174058	1.11556e-07	
470	62.2648	1422.07	19.3354	1.04163e-06	-0.981881	-2.45362e-06	0.0134239	6.62491e-08	
471	93.9062	1397.35	25.0343	1.60914e-05	-1.32824	-2.70327e-06	0.0187451	1.2174e-07	
472	81.7599	1410.42	21.8549	1.40007e-05	-1.15458	-2.37561e-06	0.0162107	1.05223e-07	
473	87.8632	1407.7	22.9413	1.54044e-05	-1.22567	-2.50387e-06	0.017342	1.15858e-07	
474	81.9429	1407.93	22.3617	1.39079e-05	-1.17367	-2.40934e-06	0.0164092	1.03712e-07	
475	86.4167	1404.74	23.1375	1.44456e-05	-1.2204	-2.52473e-06	0.017166	1.10762e-07	
476	82.9032	1404.82	23.0443	1.28296e-05	-1.20316	-2.52683e-06	0.016813	1.02449e-07	
477	68.8075	1420.15	19.6798	1.01532e-05	-1.02097	-2.20783e-06	0.014143	8.17456e-08	
478	73.7459	1413.06	20.6762	1.15565e-05	-1.07582	-2.30208e-06	0.0149739	9.02767e-08	
479	90.8849	1400.57	24.2503	1.5759e-05	-1.28424	-2.60274e-06	0.0180832	1.1763e-07	
480	79.8916	1411.19	21.6165	1.34069e-05	-1.13963	-2.3698e-06	0.0159957	1.01421e-07	
481	82.5544	1409.1	22.4763	1.36092e-05	-1.18167	-2.4732e-06	0.0165603	1.04291e-07	
482	80.2136	1409.1	22.0693	1.29511e-05	-1.15223	-2.41198e-06	0.0160587	9.87407e-08	
483	86.7132	1403.72	23.5291	1.42392e-05	-1.23888	-2.58127e-06	0.0173544	1.10585e-07	
484	72.7842	1418.18	19.9492	9.70715e-06	-1.04209	-2.35543e-06	0.0145378	9.19522e-08	
485	83.1806	1409.1	22.0439	1.41712e-05	-1.17021	-2.37654e-06	0.0165326	1.06673e-07	
486	79.8297	1410.38	21.828	1.2876e-05	-1.14558	-2.41492e-06	0.0160338	9.9292e-08	
487	85.7935	1400.98	23.8302	1.36083e-05	-1.24595	-2.59743e-06	0.0174023	1.07356e-07	
488	80.7199	1409.38	21.7219	1.36749e-05	-1.14348	-2.37322e-06	0.0160422	1.0365e-07	
489	44.8344	1443.55	13.9194	3.49075e-06	-0.703734	-1.71426e-06	0.00956498	4.04265e-08	
490	79.0996	1407.41	22.5667	9.13059e-06	-1.168	-2.61922e-06	0.0162077	9.5799e-08	
491	63.2807	1424.92	18.4965	5.67443e-06	-0.948995	-2.23555e-06	0.0130757	7.03319e-08	
492	86.3103	1401.35	24.0887	1.20044e-05	-1.25318	-2.70229e-06	0.0174336	1.05986e-07	
493	88.5216	1404.89	23.0481	1.52318e-05	-1.23124	-2.50285e-06	0.0174692	1.16498e-07	
494	90.4986	1402.79	23.7881	1.5324e-05	-1.26756	-2.57172e-06	0.0179597	1.17289e-07	
495	88.4865	1402.12	24.3451	1.47379e-05	-1.28035	-2.64973e-06	0.0179444	1.12449e-07	
496	81.8207	1412.29	21.9159	1.32628e-05	-1.16113	-2.45882e-06	0.0163461	1.06586e-07	
497	83.7	1407.23	22.9582	1.36154e-05	-1.20409	-2.50995e-06	0.0168316	1.05311e-07	
498	79.894	1408.21	22.4471	1.17513e-05	-1.17098	-2.50401e-06	0.0163541	9.7293e-08	
499	78.5214	1410.76	22.1991	1.16661e-05	-1.15519	-2.47157e-06	0.0160721	9.3746e-08	
500	82.6371	1406.71	22.8857	1.24783e-05	-1.20224	-2.54965e-06	0.0168302	1.02718e-07	
501	69.282	1419.23	19.7031	9.92346e-06	-1.01943	-2.22357e-06	0.0141033	8.20266e-08	
502	77.0357	1410.68	21.7387	9.81754e-06	-1.12941	-2.49102e-06	0.0157175	9.41669e-08	
503	83.5499	1406.8	22.7326	1.40513e-05	-1.19526	-2.46196e-06	0.0167425	1.05825e-07	
504	85.8946	1406.55	23.1391	1.44691e-05	-1.21766	-2.52333e-06	0.0170679	1.08418e-07	
505	84.4947	1408.02	22.6498	1.42209e-05	-1.19469	-2.46135e-06	0.016761	1.06447e-07	
506	84.4073	1401.1	23.7454	1.27357e-05	-1.23563	-2.60566e-06	0.017216	1.01845e-07	
507	89.7773	1399.93	24.3952	1.50324e-05	-1.28129	-2.648e-06	0.017931	1.14143e-07	
508	82.3462	1407.74	22.9157	1.26743e-05	-1.20156	-2.52288e-06	0.0168121	1.0271e-07	
509	89.9254	1401.68	24.3572	1.49856e-05	-1.28416	-2.62022e-06	0.0180485	1.14119e-07	
510	83.8517	1405.72	23.0009	1.39701e-05	-1.20809	-2.50101e-06	0.0169304	1.06038e-07	
511	88.6786	1401.65	23.6967	1.5115e-05	-1.25339	-2.57885e-06	0.0176454	1.14133e-07	
512	87.7729	1407.98	22.6374	1.45244e-05	-1.21504	-2.68649e-06	0.017255	1.2177e-07	
513	87.5222	1403.73	23.7701	1.44136e-05	-1.25327	-2.58821e-06	0.0176085	1.12401e-07	
514	81.9133	1408.14	22.6674	1.24353e-05	-1.18628	-2.49396e-06	0.0165904	1.01061e-07	
515	81.4466	1405.12	22.9298	1.20851e-05	-1.19194	-2.54422e-06	0.0165763	9.93677e-08	
516	88.9803	1402.24	23.4515	1.54984e-05	-1.24539	-2.5416e-06	0.0175771	1.15368e-07	
517	73.3466	1413.72	21.351	9.14597e-06	-1.10136	-2.44377e-06	0.0152434	8.636e-08	
518	92.9641	1395.52	25.563	1.33306e-05	-1.33935	-2.77425e-06	0.0187612	1.09252e-07	
519	67.5372	1420.74	19.5211	9.93793e-06	-1.00831	-2.1479e-06	0.0139493	7.59597e-08	
520	80.0796	1410.67	21.7565	1.3048e-05	-1.14543	-2.39262e-06	0.0160757	1.01253e-07	
521	76.8327	1411.36	21.6797	1.08553e-05	-1.11766	-2.36808e-06	0.0154485	8.78488e-08	
522	77.3123	1414.23	21.3688	1.23951e-05	-1.11968	-2.36275e-06	0.0156553	9.58899e-08	
523	92.4289	1396.29	25.485	1.37445e-05	-1.34115	-2.79758e-06	0.0188435	1.16557e-07	
524	82.5078	1407.87	22.3288	1.3579e-05	-1.17476	-2.44127e-06	0.0164526	1.02714e-07	
525	78.4107	1411.18	21.691	1.21315e-05	-1.13751	-2.41053e-06	0.0159099	9.85952e-08	
526	89.4229	1399.72	24.4576	1.46167e-05	-1.28891	-2.6568e-06	0.0181089	1.14295e-07	
527	86.1876	1406	23.2576	1.46886e-05	-1.23073	-2.53624e-06	0.0173275	1.11798e-07	
528	73.2746	1407.1	22.4109	7.04066e-06	-1.12945	-2.58009e-06	0.0153721	7.17405e-08	
529	73.6601	1413.56	20.9884	9.51741e-06	-1.08245	-2.42589e-06	0.0149683	8.66251e-08	
530	70.6771	1415.94	20.2093	8.79869e-06	-1.04893	-2.30923e-06	0.0145895	8.40356e-08	
531	73.5833	1414.7	21.1894	9.47677e-06	-1.09488	-2.42701e-06	0.0151707	8.7315e-08	
532	93.8064	1397.86	25.0568	1.57376e-05	-1.32595	-2.70083e-06	0.0186941	1.18639e-07	
533	90.2488	1401.42	24.1933	1.48856e-05	-1.27935	-2.64615e-06	0.0180191	1.15924e-07	
534	81.6895	1408.4	22.3006	1.32069e-05	-1.16996	-2.47792e-06	0.0163771	1.0335e-07	
535	79.1343	1412.04	21.7191	1.31204e-05	-1.14173	-2.35222e-06	0.0159804	9.90062e-08	
536	89.0015	1402.06	23.9338	1.49906e-05	-1.26414	-2.59763e-06	0.0177795	1.15543e-07	
537	90.4066	1400.32	24.3344	1.48145e-05	-1.28586	-2.64665e-06	0.0180913	1.15183e-07	
538	92.8417	1396.57	24.921	1.56522e-05	-1.31792	-2.72285e-06	0.0185566	1.19091e-07	
539	338.955	1489.55	-1.4105	-1.98777e-05	-0.117067	-2.11055e-07	0.0011791	3.4688e-09	
540	78.2372	1410.33	21.6359	1.29472e-05	-1.12678	-2.36315e-06	0.0156841	9.56266e-08	
541	76.1602	1410.71	22.0092	9.23994e-06	-1.13718	-2.51961e-06	0.0157631	8.88929e-08	
542	76.4022	1410.83	21.6581	1.15932e-05	-1.12543	-2.38871e-06	0.0156607	9.1764e-08	
543	81.0812	1409.8	21.85	1.34205e-05	-1.15241	-2.42389e-06	0.0161814	1.0414e-07	
544	80.957	1407.46	22.5352	1.31851e-05	-1.17676	-2.46534e-06	0.016391	1.00062e-07	
545	90.476	1400.15	24.2907	1.54162e-05	-1.2844	-2.62812e-06	0.0180955	1.17178e-07	
546	93.1862	1393.63	25.7586	1.48901e-05	-1.3502	-2.79793e-06	0.0188957	1.17475e-07	
547	77.3019	1408.41	22.0725	9.67085e-06	-1.13914	-2.52546e-06	0.0157306	9.1339e-08	
548	85.2323	1404.91	23.1879	1.36211e-05	-1.22099	-2.54976e-06	0.0171311	1.08045e-07	
549	74.0702	1412.95	21.182	9.79863e-06	-1.09682	-2.42685e-06	0.0152239	8.87793e-08	
550	89.2909	1404.43	23.5079	1.568e-05	-1.2519	-2.53212e-06	0.0176763	1.16801e-07	
551	85.9347	1406.06	23.0393	1.46138e-05	-1.21833	-2.49153e-06	0.0171604	1.09361e-07	
552	71.7567	1415.63	20.0759	1.14195e-05	-1.0437	-2.23811e-06	0.0144987	8.71343e-08	
553	67.5712	1421.18	19.5136	9.50646e-06	-1.00787	-2.20612e-06	0.0139759	7.66161e-08	
554	60.4416	1430.5	17.5127	6.9409e-06	-0.906545	-2.03463e-06	0.012568	6.86781e-08	
555	54.259	1445.54	13.658	6.65328e-06	-0.728943	-1.75616e-06	0.0103892	6.62854e-08	
556	86.4064	1400.45	24.04	1.35424e-05	-1.25517	-2.6367e-06	0.0175389	1.06238e-07	
557	76.9677	1407.58	22.4207	1.06581e-05	-1.15299	-2.5144e-06	0.0159045	8.85015e-08	
558	82.5341	1402.85	23.5612	1.13269e-05	-1.22221	-2.64674e-06	0.0170014	9.89507e-08	
559	83.517	1409.98	22.1799	1.44054e-05	-1.17647	-2.42401e-06	0.0165938	1.07453e-07	
560	93.6423	1403.36	24.1334	1.53416e-05	-1.29661	-2.69852e-06	0.0184602	1.2459e-07	
561	90.4052	1401.31	24.0778	1.53861e-05	-1.27456	-2.62033e-06	0.0179426	1.16761e-07	
562	82.1561	1406.75	22.7178	1.29522e-05	-1.19051	-2.496e-06	0.0166563	1.02159e-07	
563	87.2136	1404.76	23.0805	1.45493e-05	-1.21848	-2.46039e-06	0.0171253	1.09882e-07	
564	94.3211	1399.85	24.8664	1.60313e-05	-1.32394	-2.69836e-06	0.0187425	1.22678e-07	
565	79.8752	1409.42	21.9123	1.28968e-05	-1.14445	-2.40757e-06	0.0159522	9.77192e-08	
566	80.5111	1410.33	21.5908	1.35172e-05	-1.14085	-2.36059e-06	0.0160615	1.02807e-07	
567	76.0496	1408.6	22.3905	9.81312e-06	-1.14777	-2.54966e-06	0.0158092	8.5853e-08	
568	87.0272	1405.14	23.1803	1.50076e-05	-1.22765	-2.51971e-06	0.0172834	1.12558e-07	
569	96.881	1395.27	25.5933	1.61736e-05	-1.3629	-2.75474e-06	0.0193181	1.25131e-07	
570	87.8808	1402.29	23.8105	1.45789e-05	-1.25333	-2.59815e-06	0.0175764	1.10639e-07	
571	86.9603	1405.56	23.1819	1.49266e-05	-1.22456	-2.51243e-06	0.01723	1.1129e-07	
572	46.5051	1443.07	13.9223	4.73415e-06	-0.709049	-1.67957e-06	0.0096991	4.57817e-08	
573	86.4573	1400.24	24.3045	1.20644e-05	-1.27003	-2.7107e-06	0.0177571	1.07665e-07	
574	99.9838	1388.96	27.1552	1.63825e-05	-1.42902	-2.91569e-06	0.0200647	1.25543e-07	
575	82.197	1408.67	22.3959	1.36464e-05	-1.1803	-2.46209e-06	0.0165641	1.042e-07	
576	72.8239	1412.83	20.7388	1.05246e-05	-1.07359	-2.34721e-06	0.0148783	8.65748e-08	
577	80.178	1408	22.4418	1.20902e-05	-1.16146	-2.49035e-06	0.0161005	9.57969e-08	
578	83.3784	1406.42	22.9179	1.27846e-05	-1.20473	-2.55263e-06	0.016932	1.0434e-07	
579	70.0866	1422.81	19.4153	1.07964e-05	-1.01423	-2.13318e-06	0.0141355	8.37689e-08	
580	79.2764	1410.19	21.6392	1.27672e-05	-1.13718	-2.37629e-06	0.0159366	9.98827e-08	
581	86.0471	1404.7	23.2512	1.42432e-05	-1.22787	-2.53877e-06	0.0172837	1.10193e-07	
582	62.2924	1425.43	18.6112	6.38916e-06	-0.954581	-2.1982e-06	0.0131345	6.99482e-08	
583	58.5099	1428.73	17.6389	5.52849e-06	-0.897443	-2.09777e-06	0.0122864	6.12433e-08	
584	80.326	1411.53	21.6662	1.35777e-05	-1.14359	-2.36778e-06	0.0160813	1.03116e-07	
585	80.0512	1409.42	22.3364	1.22445e-05	-1.16439	-2.4647e-06	0.0162228	9.73299e-08	
586	86.0212	1403.17	23.5461	1.40239e-05	-1.23426	-2.572e-06	0.0172354	1.07646e-07	
587	67.3296	1420.21	19.4955	9.41589e-06	-1.00278	-2.20638e-06	0.0138325	7.66501e-08	
588	73.9446	1414.79	20.6837	9.89299e-06	-1.07714	-2.37937e-06	0.0149895	9.12207e-08	
589	91.7804	1400.72	24.176	1.56957e-05	-1.28436	-2.62692e-06	0.0181461	1.18766e-07	
590	87.3666	1402.43	23.543	1.48598e-05	-1.23979	-2.54904e-06	0.0173944	1.11055e-07	
591	85.6049	1403.81	23.1631	1.37599e-05	-1.22442	-2.54377e-06	0.0172597	1.09172e-07	
592	94.091	1398.7	24.601	1.6106e-05	-1.31019	-2.66123e-06	0.0185446	1.22519e-07	
593	90.353	1400.39	24.3373	1.52109e-05	-1.28529	-2.64248e-06	0.018076	1.15772e-07	
594	69.1117	1417.79	20.1602	9.15046e-06	-1.03819	-2.29771e-06	0.0143436	7.93097e-08	
595	84.6377	1403.81	23.2973	1.26011e-05	-1.22466	-2.5959e-06	0.0171793	1.06849e-07	
596	95.6845	1430.03	15.4239	-1.09563e-05	-0.871426	-1.38861e-06	0.0128586	3.23631e-08	
597	82.6108	1406.31	22.62	1.36102e-05	-1.18466	-2.47595e-06	0.0165665	1.03562e-07	
598	78.2565	1409.37	22.0521	1.22466e-05	-1.14486	-2.43276e-06	0.0159236	9.51128e-08	
599	85.6842	1405.71	23.1503	1.33908e-05	-1.22062	-2.5893e-06	0.0171561	1.09788e-07	
600	85.6744	1407.26	22.6694	1.47343e-05	-1.20016	-2.48166e-06	0.0168854	1.09882e-07	
601	83.558	1404.79	22.8127	1.30838e-05	-1.201	-2.51936e-06	0.0168544	1.06053e-07	
602	82.0048	1405.2	22.7845	1.26832e-05	-1.18434	-2.49926e-06	0.0164886	9.9304e-08	
603	97.4988	1395.33	25.4806	1.66492e-05	-1.36156	-2.75909e-06	0.0193191	1.27955e-07	
604	100.102	1392.57	26.0592	1.67339e-05	-1.39205	-2.84831e-06	0.019771	1.3129e-07	
605	88.294	1402.55	23.4503	1.488e-05	-1.24282	-2.55982e-06	0.0175286	1.13873e-07	
606	83.9711	1407.03	22.374	1.44614e-05	-1.18391	-2.43028e-06	0.0166672	1.07289e-07	
607	74.4882	1409.29	22.0475	4.64172e-06	-1.12772	-2.64025e-06	0.0155231	8.55707e-08	
608	77.5324	1414.37	20.9906	1.30666e-05	-1.10234	-2.29094e-06	0.0154225	9.71947e-08	
609	86.3711	1406.74	22.8005	1.47611e-05	-1.20705	-2.48771e-06	0.0170064	1.11922e-07	
610	97.5331	1389.8	26.6218	1.10441e-05	-1.36315	-2.91378e-06	0.0187756	1.06625e-07	
611	84.8637	1406.51	22.4509	1.45192e-05	-1.18848	-2.44706e-06	0.0167346	1.09286e-07	
612	67.7	1417.93	19.8724	7.47021e-06	-1.01906	-2.32143e-06	0.0140445	7.66052e-08	
613	81.2881	1407.88	22.3214	1.359e-05	-1.16953	-2.43716e-06	0.0163467	1.02702e-07	
614	87.8452	1405.24	23.1396	1.44955e-05	-1.22393	-2.47619e-06	0.0172187	1.09358e-07	
615	90.1209	1398.54	24.581	1.36022e-05	-1.29485	-2.70883e-06	0.0181975	1.14185e-07	
616	83.452	1403.33	23.2559	1.19833e-05	-1.21554	-2.57425e-06	0.0169642	1.03813e-07	
617	83.6763	1408.29	22.4517	1.41843e-05	-1.18445	-2.43782e-06	0.0166132	1.07042e-07	
618	94.3493	1396.42	25.2087	1.50492e-05	-1.33378	-2.76768e-06	0.0187986	1.21889e-07	
619	73.9197	1415.38	20.5506	1.14241e-05	-1.07138	-2.2925e-06	0.014912	8.98639e-08	
620	83.9813	1408.03	22.0935	1.44742e-05	-1.16935	-2.41448e-06	0.0164724	1.0767e-07	
621	83.638	1404.82	23.1093	1.30433e-05	-1.20957	-2.56167e-06	0.0169105	1.04343e-07	
622	86.9723	1400.94	23.8594	1.39056e-05	-1.25051	-2.62028e-06	0.0174965	1.09291e-07	
623	75.4128	1412.27	21.3632	1.10828e-05	-1.10957	-2.38455e-06	0.0154108	9.05522e-08	
624	79.4865	1409.54	21.8877	1.24152e-05	-1.1431	-2.42625e-06	0.0159452	9.83736e-08	
625	86.827	1405.51	23.0507	1.49433e-05	-1.22308	-2.51176e-06	0.0172428	1.133e-07	
626	87.2269	1402.49	23.3562	1.27612e-05	-1.23268	-2.60161e-06	0.0173471	1.10914e-07	
627	87.3529	1399.22	24.143	1.35008e-05	-1.25393	-2.5797e-06	0.0174354	1.02779e-07	
628	81.4846	1405.76	22.7696	1.27949e-05	-1.1843	-2.49693e-06	0.0164651	1.00084e-07	
629	88.1951	1399.58	23.9717	1.28858e-05	-1.26191	-2.68698e-06	0.0177478	1.12481e-07	
630	84.0291	1408.1	22.2345	1.35515e-05	-1.18201	-2.46052e-06	0.0167304	1.0758e-07	
631	87.6574	1401.78	24.0748	1.4186e-05	-1.26522	-2.6173e-06	0.0177315	1.10155e-07	
632	77.8247	1412.76	21.4521	1.19729e-05	-1.12367	-2.38228e-06	0.0157081	9.61351e-08	
633	92.3127	1396.65	24.6341	1.59272e-05	-1.30562	-2.64563e-06	0.0184034	1.20152e-07	
634	89.5234	1399.29	24.5743	1.44217e-05	-1.29115	-2.6948e-06	0.0181032	1.1352e-07	
635	90.3262	1401.88	23.8582	1.56753e-05	-1.26647	-2.55884e-06	0.0178628	1.16769e-07	
636	81.5997	1410.92	21.9098	1.22435e-05	-1.15362	-2.46091e-06	0.0161932	1.02649e-07	
637	77.6662	1406.08	22.9158	9.19235e-06	-1.17361	-2.57805e-06	0.0161771	8.48827e-08	
638	87.2896	1401.67	23.7854	1.43663e-05	-1.25123	-2.58979e-06	0.0175425	1.11281e-07	
639	84.247	1407.23	22.6337	1.45473e-05	-1.19277	-2.4548e-06	0.0167362	1.07525e-07	
640	85.7966	1404.35	23.1952	1.39231e-05	-1.22341	-2.55214e-06	0.0171952	1.09873e-07	
641	84.4278	1406.7	22.7989	1.43331e-05	-1.20165	-2.46895e-06	0.0168659	1.07938e-07	
642	92.0231	1399.45	24.4185	1.56144e-05	-1.29655	-2.66522e-06	0.0183015	1.20194e-07	
643	73.5479	1413.22	20.6124	1.00467e-05	-1.07578	-2.35809e-06	0.0150062	9.20827e-08	
644	72.4547	1409.67	21.776	5.21323e-06	-1.10769	-2.60914e-06	0.0152127	7.94259e-08	
645	75.7523	1407.87	22.006	8.18266e-06	-1.1331	-2.5604e-06	0.0156856	8.89668e-08	
646	91.5703	1396.26	25.2849	1.37197e-05	-1.32805	-2.80693e-06	0.0186365	1.15207e-07	
647	88.9147	1403.55	23.6098	1.51717e-05	-1.2556	-2.56473e-06	0.0177346	1.16372e-07	
648	82.5953	1398.89	24.5058	6.63215e-06	-1.25725	-2.89925e-06	0.017358	9.75893e-08	
649	66.1069	1424.17	18.3297	9.83411e-06	-0.953976	-2.07552e-06	0.013273	8.10023e-08	
650	81.6445	1404.82	22.8772	1.13916e-05	-1.1894	-2.59643e-06	0.0165548	1.0006e-07	
651	102.244	1391.67	26.2303	1.74368e-05	-1.40868	-2.85627e-06	0.0200789	1.33995e-07	
652	68.3527	1418.05	19.965	9.03776e-06	-1.02459	-2.25798e-06	0.0141114	7.76423e-08	
653	82.9176	1405.52	22.5993	1.31988e-05	-1.18909	-2.47375e-06	0.0166962	1.05081e-07	
654	79.0156	1410.45	22.0849	1.20831e-05	-1.1509	-2.48206e-06	0.0160475	9.76788e-08	
655	93.0738	1400.74	24.1567	1.55649e-05	-1.28378	-2.57596e-06	0.0181655	1.15526e-07	
656	68.9896	1416.7	20.3463	8.28364e-06	-1.04451	-2.35154e-06	0.0143841	7.93433e-08	
657	75.4536	1409.42	21.4665	1.0408e-05	-1.11477	-2.43178e-06	0.0155133	9.14737e-08	
658	77.7236	1410.92	21.6867	1.15951e-05	-1.13171	-2.42016e-06	0.0157811	9.5279e-08	
659	71.2869	1418.79	19.7434	1.09083e-05	-1.03253	-2.183e-06	0.0144519	8.57395e-08	
660	82.2354	1407.99	22.6753	1.34514e-05	-1.18595	-2.46504e-06	0.0165404	1.01577e-07	
661	86.6409	1402.63	23.4009	1.46768e-05	-1.23589	-2.5379e-06	0.0173668	1.10886e-07	
662	94.5381	1395.09	25.136	1.55195e-05	-1.33614	-2.73205e-06	0.0189046	1.23108e-07	
663	89.0609	1402.18	23.9974	1.39972e-05	-1.26768	-2.68006e-06	0.0178653	1.13367e-07	
664	90.9949	1399.79	24.2639	1.4978e-05	-1.28864	-2.66269e-06	0.0182035	1.18892e-07	
665	91.5789	1398.56	24.4957	1.55283e-05	-1.29695	-2.65611e-06	0.0182607	1.18607e-07	
666	72.0227	1413.12	21.4777	5.70645e-06	-1.09697	-2.55691e-06	0.0150952	8.13631e-08	
667	91.5931	1394.23	25.4369	1.42698e-05	-1.33405	-2.80078e-06	0.0186943	1.1412e-07	
668	91.5649	1398.45	24.3825	1.56404e-05	-1.29082	-2.63817e-06	0.018173	1.18129e-07	
669	89.2993	1403.52	23.5244	1.54073e-05	-1.25095	-2.54094e-06	0.0176929	1.15912e-07	
670	93.8318	1396.19	25.2016	1.5708e-05	-1.33415	-2.73927e-06	0.0188023	1.21203e-07	
671	87.7506	1398.09	24.6198	1.30621e-05	-1.28725	-2.72789e-06	0.0179932	1.08725e-07	
672	81.2368	1410.48	21.931	1.35299e-05	-1.15457	-2.40192e-06	0.0161849	1.02363e-07	
673	84.2368	1403.12	23.2468	1.35102e-05	-1.21665	-2.54434e-06	0.0169974	1.04404e-07	
674	97.4528	1394.3	25.7491	1.68231e-05	-1.37065	-2.75833e-06	0.0193905	1.26992e-07	
675	70.6343	1418.3	19.9289	1.11403e-05	-1.03232	-2.19399e-06	0.0143092	8.52064e-08	
676	79.3502	1402.52	23.5236	8.7172e-06	-1.20392	-2.66973e-06	0.016573	8.98067e-08	
677	84.2164	1405.2	22.9168	1.35062e-05	-1.20639	-2.52417e-06	0.0169376	1.06091e-07	
678	72.2217	1413.06	21.2488	6.16834e-06	-1.09046	-2.5105e-06	0.0150326	8.2088e-08	
679	89.417	1393.3	25.8092	1.35676e-05	-1.33104	-2.86524e-06	0.0184218	1.06867e-07	
680	75.236	1409.2	22.4326	8.855e-06	-1.14631	-2.5713e-06	0.0157554	8.26427e-08	
681	88.6252	1403.96	23.7404	1.32045e-05	-1.2578	-2.67844e-06	0.0177446	1.14939e-07	
682	88.8071	1402.34	23.926	1.41239e-05	-1.2638	-2.63662e-06	0.017789	1.12894e-07	
683	84.0441	1403.59	23.2455	1.39656e-05	-1.21703	-2.53266e-06	0.0169989	1.05679e-07	
684	84.9965	1401.31	24.0425	1.23867e-05	-1.2511	-2.66646e-06	0.0174163	1.04083e-07	
685	78.7534	1402.3	23.6042	6.02769e-06	-1.20334	-2.84253e-06	0.0165342	8.76367e-08	
686	77.0836	1413.03	21.0802	1.24931e-05	-1.10603	-2.31847e-06	0.0154757	9.57314e-08	
687	75.4873	1413.73	21.031	1.17186e-05	-1.09803	-2.34055e-06	0.0153245	9.20443e-08	
688	83.3839	1407.48	22.9816	1.25457e-05	-1.20412	-2.55517e-06	0.0168251	1.04542e-07	
689	48.7204	1447.72	13.8712	5.19718e-06	-0.715715	-1.64211e-06	0.00992681	4.57301e-08	
690	65.4714	1428.91	17.4098	1.05143e-05	-0.921841	-1.93559e-06	0.0130128	8.05048e-08	
691	87.8335	1398.82	24.5201	1.31528e-05	-1.28318	-2.73012e-06	0.0179392	1.09439e-07	
692	90.7658	1400.8	24.2242	1.52985e-05	-1.27832	-2.61626e-06	0.0179677	1.15016e-07	
693	93.0854	1398.99	24.6017	1.60498e-05	-1.30722	-2.64892e-06	0.0184602	1.20833e-07	
694	92.3322	1395.41	25.0921	1.5194e-05	-1.32329	-2.71583e-06	0.0185929	1.17125e-07	
695	84.2305	1406.61	22.5972	1.46728e-05	-1.1946	-2.44833e-06	0.0167846	1.09365e-07	
696	96.0552	1397.72	25.3862	1.56354e-05	-1.35274	-2.78198e-06	0.0191521	1.25013e-07	
697	72.3567	1413.61	21.0832	7.53501e-06	-1.08687	-2.44637e-06	0.0150476	8.58397e-08	
698	86.136	1403.9	23.2504	1.47023e-05	-1.22636	-2.5078e-06	0.0172268	1.10197e-07	
699	59.383	1427.78	17.6672	8.08511e-06	-0.901613	-1.99974e-06	0.0123447	6.30015e-08	
700	79.8119	1407.8	22.2527	1.29568e-05	-1.16122	-2.41964e-06	0.0161603	9.77064e-08	
701	88.5279	1403.05	23.8286	1.4865e-05	-1.25661	-2.59703e-06	0.0176376	1.12726e-07	
702	77.1085	1415.48	20.9695	1.29816e-05	-1.10382	-2.26623e-06	0.0154519	9.66369e-08	
703	87.7102	1402.64	23.6646	1.49277e-05	-1.24913	-2.56254e-06	0.0175339	1.1265e-07	
704	78.934	1413.14	21.0479	1.35636e-05	-1.11204	-2.30988e-06	0.0155944	1.00597e-07	
705	87.2986	1405.81	23.5669	1.49808e-05	-1.24519	-2.5708e-06	0.0174862	1.12473e-07	
706	73.4282	1415.75	20.8023	1.14447e-05	-1.08323	-2.31466e-06	0.0150514	8.87283e-08	
707	82.4529	1404.88	22.7701	1.25173e-05	-1.19492	-2.52447e-06	0.0167173	1.04342e-07	
708	95.3788	1393.1	25.9984	1.58379e-05	-1.37028	-2.78963e-06	0.0192111	1.20934e-07	
709	86.9625	1402.95	23.8728	1.41921e-05	-1.25363	-2.59365e-06	0.0175428	1.09614e-07	
710	66.939	1422.29	19.1518	9.27474e-06	-0.993284	-2.21429e-06	0.0137765	7.92278e-08	
711	88.5304	1402.49	23.8291	1.4915e-05	-1.25939	-2.59883e-06	0.0177128	1.13793e-07	
712	81.4184	1411.35	21.9916	1.29588e-05	-1.16111	-2.43918e-06	0.0163148	1.04137e-07	
713	66.4085	1457.23	11.9946	-6.79854e-06	-0.683398	-1.43283e-06	0.00993732	3.02894e-08	
714	90.2924	1400.86	24.1889	1.56582e-05	-1.28369	-2.5671e-06	0.0180935	1.16177e-07	
715	80.7504	1409.26	22.3378	1.26229e-05	-1.17256	-2.48426e-06	0.0163972	1.00016e-07	
716	93.4491	1398.81	24.9224	1.5579e-05	-1.32401	-2.69088e-06	0.0186902	1.21625e-07	
717	87.0801	1403.61	23.6681	1.43477e-05	-1.2482	-2.5819e-06	0.0175087	1.10223e-07	
718	85.4873	1404.05	23.3763	1.39554e-05	-1.22678	-2.54762e-06	0.0171647	1.0781e-07	
719	73.7725	1418.24	20.0316	1.26623e-05	-1.05456	-2.18887e-06	0.0147358	9.40996e-08	
720	91.3239	1400.37	23.8553	1.56729e-05	-1.27497	-2.5955e-06	0.0180691	1.20036e-07	
721	84.6545	1405.43	23.1863	1.40052e-05	-1.21921	-2.51009e-06	0.0170542	1.05538e-07	
722	89.5855	1401.71	24.1019	1.5046e-05	-1.27265	-2.64191e-06	0.0178629	1.15261e-07	
723	50.3859	1438.46	15.2565	4.6837e-06	-0.777719	-1.8425e-06	0.0106171	4.91284e-08	
724	78.2089	1411.33	21.8957	1.24411e-05	-1.14516	-2.39088e-06	0.0159532	9.63321e-08	
725	74.0643	1413.74	21.0984	1.07446e-05	-1.09574	-2.3669e-06	0.0151962	8.87919e-08	
726	88.1649	1403.03	23.8073	1.38963e-05	-1.25955	-2.59436e-06	0.0177116	1.13654e-07	
727	84.6538	1403.79	23.578	1.35278e-05	-1.23282	-2.58179e-06	0.0171759	1.04748e-07	
728	84.9746	1404.25	23.5818	1.31064e-05	-1.23831	-2.5832e-06	0.0173129	1.06881e-07	
729	79.5762	1411.83	21.6173	1.36676e-05	-1.14137	-2.32959e-06	0.0159838	1.01719e-07	
730	78.3959	1406.44	22.8763	9.59412e-06	-1.17685	-2.57056e-06	0.016229	9.0815e-08	
731	82.1036	1405.75	23.1748	1.14733e-05	-1.2057	-2.60363e-06	0.0167548	9.99684e-08	
732	82.8614	1407.08	22.7741	1.3526e-05	-1.19891	-2.48667e-06	0.0167779	1.04149e-07	
733	85.873	1404.83	23.4731	1.34999e-05	-1.23867	-2.57806e-06	0.0174014	1.08948e-07	
734	98.1866	1396.81	25.4407	1.62575e-05	-1.36333	-2.79672e-06	0.0193777	1.27358e-07	
735	89.685	1401.62	24.3185	1.48785e-05	-1.28533	-2.65257e-06	0.0180636	1.14636e-07	
736	79.9591	1409.64	22.2227	1.29141e-05	-1.16469	-2.44901e-06	0.0162505	1.00103e-07	
737	67.2112	1423.14	19.1521	9.79295e-06	-0.993904	-2.16038e-06	0.0137548	8.02205e-08	
738	89.4429	1400.83	24.4946	1.39628e-05	-1.28941	-2.70006e-06	0.0180629	1.12579e-07	
739	81.46	1407.48	22.5691	1.27071e-05	-1.18167	-2.49322e-06	0.0164898	1.0144e-07	
740	91.5549	1399.13	24.6986	1.52224e-05	-1.30498	-2.69284e-06	0.0183149	1.16541e-07	
741	70.0702	1416.68	20.811	8.0149e-06	-1.06783	-2.40367e-06	0.0146747	7.89599e-08	
742	77.8149	1412.96	21.6153	1.22845e-05	-1.13203	-2.3706e-06	0.0157885	9.54051e-08	
743	85.9079	1402.53	23.5656	1.40232e-05	-1.23903	-2.57889e-06	0.0173484	1.08841e-07	
744	89.016	1404.59	23.717	1.50073e-05	-1.25852	-2.59061e-06	0.0177189	1.14012e-07	
745	75.7826	1416.66	20.7815	1.22087e-05	-1.09605	-2.34164e-06	0.0153576	9.67826e-08	
746	73.9296	1414.36	21.1868	1.07632e-05	-1.10129	-2.34996e-06	0.0152732	8.80376e-08	
747	84.1107	1406.26	23.0931	1.39125e-05	-1.21279	-2.49181e-06	0.0169364	1.05686e-07	
748	85.6577	1399.83	24.2259	1.2164e-05	-1.26434	-2.69296e-06	0.0176159	1.05715e-07	
749	54.4803	1447.84	13.553	4.90793e-06	-0.717475	-1.6816e-06	0.0101509	5.51802e-08	
750	79.8563	1412.31	22.1667	1.21573e-05	-1.16391	-2.44676e-06	0.0162686	9.73588e-08	
751	71.216	1421.64	19.8196	1.07773e-05	-1.03661	-2.18779e-06	0.0144471	8.57642e-08	
752	71.2476	1421.57	19.7623	1.09595e-05	-1.03415	-2.22082e-06	0.0143895	8.82237e-08	
753	92.7567	1401.81	24.474	1.57403e-05	-1.30661	-2.64562e-06	0.018476	1.22285e-07	
754	101.383	1396.16	25.7964	1.73747e-05	-1.39164	-2.76595e-06	0.0198638	1.33472e-07	
755	92.4262	1399.3	25.2432	1.54174e-05	-1.33117	-2.72074e-06	0.0186473	1.16933e-07	
756	87.175	1403.17	23.865	1.46459e-05	-1.25899	-2.63476e-06	0.0176205	1.11694e-07	
757	79.2632	1410.12	22.2742	1.23046e-05	-1.16351	-2.46395e-06	0.0161913	9.63491e-08	
758	85.0767	1404.94	23.4977	1.28128e-05	-1.23149	-2.66444e-06	0.0172015	1.0732e-07	
759	63.0931	1424.76	19.3307	4.39703e-06	-0.981012	-2.40795e-06	0.0133662	6.32545e-08	
760	80.8569	1409.05	22.7828	1.12312e-05	-1.18902	-2.55368e-06	0.0165492	9.98874e-08	
761	81.405	1410.03	22.2263	1.38493e-05	-1.16975	-2.39921e-06	0.0163587	1.02833e-07	
762	86.6526	1403.81	23.5463	1.33978e-05	-1.23996	-2.58033e-06	0.017357	1.08945e-07	
763	87.742	1406.43	23.3547	1.47254e-05	-1.23974	-2.54945e-06	0.0174392	1.11903e-07	
764	84.9351	1407.58	23.0272	1.43164e-05	-1.215	-2.49578e-06	0.01702	1.0808e-07	
765	91.5278	1405.32	23.7309	1.61068e-05	-1.2743	-2.58359e-06	0.0180804	1.21755e-07	
766	91.7176	1404.21	24.0982	1.60162e-05	-1.29017	-2.59021e-06	0.0182577	1.20373e-07	
767	74.4277	1414.89	21.1792	1.09819e-05	-1.10205	-2.35655e-06	0.0152858	8.8462e-08	
768	71.0124	1422.17	19.812	1.07072e-05	-1.0323	-2.24242e-06	0.0143214	8.52805e-08	
769	77.3928	1410.4	21.9087	1.15979e-05	-1.13917	-2.42175e-06	0.0157912	9.34668e-08	
770	75.5704	1417.39	20.4971	1.23698e-05	-1.08172	-2.23944e-06	0.0151542	9.47083e-08	
771	82.2003	1408.81	22.5434	1.35153e-05	-1.18247	-2.45633e-06	0.0164932	1.02147e-07	
772	87.4055	1405.25	23.7551	1.39248e-05	-1.25352	-2.64266e-06	0.0175549	1.11522e-07	
773	75.6538	1415.35	21.2254	1.11806e-05	-1.10958	-2.35354e-06	0.0154368	9.09905e-08	
774	89.468	1402.05	24.2769	1.36807e-05	-1.28449	-2.66346e-06	0.018044	1.14845e-07	
775	70.4648	1420.62	19.6693	1.09894e-05	-1.02851	-2.19606e-06	0.0143011	8.5716e-08	
776	83.3944	1407.53	22.9538	1.31816e-05	-1.20661	-2.52891e-06	0.0168453	1.02989e-07	
777	68.4102	1418.25	20.5385	7.78441e-06	-1.05033	-2.37122e-06	0.01438	7.52432e-08	
778	79.8351	1411.07	22.0847	1.24762e-05	-1.1574	-2.45748e-06	0.0161262	9.91537e-08	
779	60.3762	1428.14	18.1122	5.1001e-06	-0.928	-2.19382e-06	0.012728	6.43104e-08	
780	71.6178	1416.09	20.7886	9.08808e-06	-1.0727	-2.393e-06	0.0148012	8.25958e-08	
781	85.1582	1406.54	23.2562	1.36074e-05	-1.22414	-2.53052e-06	0.0171223	1.06955e-07	
782	81.7465	1409.54	22.3746	1.35354e-05	-1.17921	-2.43441e-06	0.0164884	1.02341e-07	
783	84.5792	1411.98	22.7446	1.44913e-05	-1.20798	-2.46984e-06	0.0169025	1.07664e-07	
784	74.5834	1415.78	20.899	1.14742e-05	-1.09539	-2.31881e-06	0.0152434	9.19446e-08	
785	85.0245	1405.69	23.3241	1.38671e-05	-1.22998	-2.5407e-06	0.0172391	1.07489e-07	
786	82.1606	1411.14	21.9999	1.35163e-05	-1.16835	-2.40685e-06	0.0164653	1.04559e-07	
787	45.0196	1446.24	13.9595	3.87805e-06	-0.706391	-1.73703e-06	0.0095563	4.03274e-08	
788	82.0967	1407.22	22.9649	1.27243e-05	-1.19993	-2.53373e-06	0.0167082	1.00226e-07	
789	85.7124	1402.79	23.9311	1.36343e-05	-1.25481	-2.62031e-06	0.0175062	1.06828e-07	
790	90.9136	1400.49	24.7441	1.52119e-05	-1.3077	-2.67887e-06	0.018341	1.16108e-07	
791	84.0672	1407.04	23.3054	1.35391e-05	-1.22386	-2.54013e-06	0.0170858	1.05347e-07	
792	81.619	1412.87	21.9126	1.37315e-05	-1.16419	-2.39395e-06	0.0163774	1.05569e-07	
793	78.5554	1413.42	21.7624	1.2276e-05	-1.1437	-2.39339e-06	0.0159752	9.81646e-08	
794	75.1249	1409.04	22.6598	5.09841e-06	-1.15707	-2.69748e-06	0.0158702	8.01085e-08	
795	62.9292	1420.04	19.9568	2.55085e-06	-1.00798	-2.48409e-06	0.0136896	6.14086e-08	
796	81.5483	1409.06	22.5098	1.24787e-05	-1.18331	-2.49398e-06	0.0165274	1.02132e-07	
797	69.9007	1415.63	20.9316	7.89959e-06	-1.07762	-2.46901e-06	0.0148401	7.96093e-08	
798	90.2091	1401.39	24.5163	1.52804e-05	-1.29606	-2.66875e-06	0.0181662	1.1491e-07	
799	88.8986	1401.96	24.0654	1.49536e-05	-1.27181	-2.55617e-06	0.0178374	1.11637e-07	
800	76.9944	1416.77	20.6309	1.29752e-05	-1.08995	-2.27244e-06	0.0152552	9.76059e-08	
801	87.2126	1405.82	23.4191	1.48507e-05	-1.24457	-2.52837e-06	0.0175286	1.12354e-07	
802	92.2866	1402.32	24.1932	1.59424e-05	-1.29414	-2.60316e-06	0.0183183	1.20863e-07	
803	71.7751	1415.9	20.7019	1.04035e-05	-1.07431	-2.29366e-06	0.0148718	8.41383e-08	
804	91.8845	1398.98	24.8035	1.5642e-05	-1.3144	-2.6903e-06	0.0184818	1.18297e-07	
805	94.1203	1400.6	24.6411	1.61974e-05	-1.31638	-2.6856e-06	0.0186169	1.22428e-07	
806	87.4095	1403.18	23.9348	1.43311e-05	-1.25909	-2.60209e-06	0.017601	1.10378e-07	
807	82.3059	1406.59	23.5277	1.14246e-05	-1.22342	-2.64885e-06	0.0169767	9.91393e-08	
808	82.6535	1406.54	23.3172	1.19061e-05	-1.21744	-2.6143e-06	0.0169271	1.01033e-07	
809	86.363	1403.88	23.6805	1.38716e-05	-1.2472	-2.59386e-06	0.0174491	1.08553e-07	
810	75.3664	1414.63	21.4269	1.0152e-05	-1.11587	-2.42712e-06	0.0154921	9.08879e-08	
811	74.3658	1416.16	20.8461	1.10262e-05	-1.08896	-2.37381e-06	0.0151358	8.97418e-08	
812	83.0808	1403.84	23.7409	1.19231e-05	-1.23352	-2.64418e-06	0.0170941	1.00493e-07	
813	87.4271	1401.86	24.1003	1.38228e-05	-1.26393	-2.65206e-06	0.0176222	1.08866e-07	
814	90.3748	1402.11	24.3003	1.50808e-05	-1.28857	-2.64559e-06	0.0181279	1.172e-07	
815	87.1257	1404.5	23.7289	1.45766e-05	-1.25253	-2.56686e-06	0.0175515	1.10768e-07	
816	80.3689	1413.51	21.8059	1.35064e-05	-1.15078	-2.40482e-06	0.0161089	1.01452e-07	
817	83.378	1407.7	22.7704	1.3637e-05	-1.19894	-2.5058e-06	0.0167735	1.05539e-07	
818	65.15	1424.89	18.8395	5.74732e-06	-0.978654	-2.20245e-06	0.0135991	7.26627e-08	
819	75.8611	1415.41	21.6322	1.00705e-05	-1.12857	-2.46539e-06	0.0156722	9.15261e-08	
820	93.6204	1399.37	24.9447	1.59653e-05	-1.32855	-2.69116e-06	0.0187501	1.21153e-07	
821	82.8031	1404.25	23.6767	1.14829e-05	-1.22534	-2.65277e-06	0.016936	9.75386e-08	
822	86.5536	1407.92	23.2672	1.44382e-05	-1.23482	-2.53732e-06	0.0173623	1.10997e-07	
823	75.1131	1415.41	20.7753	1.21124e-05	-1.08933	-2.27279e-06	0.0151692	9.24957e-08	
824	84.4924	1407.06	23.0793	1.43731e-05	-1.21778	-2.48583e-06	0.0170459	1.06506e-07	
825	88.2512	1405.35	23.4765	1.51179e-05	-1.2489	-2.5414e-06	0.0175815	1.14559e-07	
826	88.0213	1405.51	23.8277	1.44097e-05	-1.25934	-2.5783e-06	0.0176475	1.11339e-07	
827	82.7912	1408.27	22.8444	1.3244e-05	-1.20266	-2.51353e-06	0.0168183	1.03317e-07	
828	87.6208	1404.88	23.4264	1.47985e-05	-1.2427	-2.54604e-06	0.0174435	1.11009e-07	
829	90.3269	1402.98	24.1776	1.51556e-05	-1.2859	-2.62834e-06	0.0181303	1.16416e-07	
830	95.1722	1403.4	24.1133	1.61955e-05	-1.30446	-2.63328e-06	0.0186081	1.24959e-07	
831	99.6324	1396.63	25.8852	1.67419e-05	-1.38898	-2.8283e-06	0.0197163	1.30428e-07	
832	92.146	1401.25	24.2936	1.57062e-05	-1.29668	-2.63451e-06	0.0183231	1.19555e-07	
833	98.2108	1395.91	25.7445	1.69848e-05	-1.37981	-2.78391e-06	0.0195464	1.28501e-07	
834	88.0249	1405.3	23.5671	1.47936e-05	-1.25223	-2.5739e-06	0.0176028	1.13292e-07	
835	76.4845	1415.99	21.0259	1.26697e-05	-1.1077	-2.32014e-06	0.015469	9.53768e-08	
836	81.3024	1412.1	22.083	1.35266e-05	-1.16686	-2.40386e-06	0.0163584	1.032e-07	
837	73.156	1418.36	20.4536	1.11084e-05	-1.06853	-2.28088e-06	0.0148632	8.80918e-08	
838	91.5895	1401.28	24.4403	1.54392e-05	-1.30209	-2.66275e-06	0.018385	1.19038e-07	
839	86.7	1407.72	23.0019	1.46609e-05	-1.22277	-2.51583e-06	0.0172091	1.11405e-07	
840	70.8203	1418.38	20.4061	1.03897e-05	-1.05706	-2.2819e-06	0.014619	8.1921e-08	
841	74.0358	1415.46	20.9288	1.03679e-05	-1.09138	-2.37003e-06	0.0151571	8.97556e-08	
842	63.5911	1424.27	19.2202	5.92815e-06	-0.982231	-2.27876e-06	0.0134424	6.78483e-08	
843	83.3034	1407.39	22.8826	1.32242e-05	-1.20151	-2.51461e-06	0.0167642	1.03691e-07	
844	82.4228	1404.69	23.1278	1.24727e-05	-1.20251	-2.57466e-06	0.0166775	9.80064e-08	
845	98.9688	1395.16	26.0489	1.667e-05	-1.39404	-2.82455e-06	0.0197496	1.2923e-07	
846	90.7288	1398.97	25.0232	1.43099e-05	-1.31664	-2.75829e-06	0.0184135	1.13468e-07	
847	77.8411	1410.2	22.3385	1.04256e-05	-1.15923	-2.53136e-06	0.0160566	9.1119e-08	
848	81.5463	1409.28	22.4002	1.21764e-05	-1.17859	-2.48063e-06	0.0164742	1.01824e-07	
849	78.1372	1412.61	21.7253	1.19779e-05	-1.14099	-2.41927e-06	0.015934	9.66234e-08	
850	85.1863	1401.84	24.1957	1.30151e-05	-1.25393	-2.67422e-06	0.0173413	9.98174e-08	
851	88.0293	1403.77	23.9003	1.45063e-05	-1.26514	-2.63917e-06	0.0177482	1.12802e-07	
852	91.5268	1399.16	24.7415	1.43084e-05	-1.30958	-2.73225e-06	0.0184333	1.17693e-07	
853	82.6794	1410.32	22.6495	1.33765e-05	-1.19274	-2.43173e-06	0.0166705	1.01535e-07	
854	88.7854	1401.41	24.2905	1.4562e-05	-1.28064	-2.67599e-06	0.0179528	1.11496e-07	
855	94.9175	1397.28	25.5148	1.58067e-05	-1.35431	-2.76789e-06	0.0190678	1.2107e-07	
856	94.9377	1396.55	25.6601	1.53644e-05	-1.36165	-2.81244e-06	0.0191719	1.22227e-07	
857	87.0968	1407.29	23.2699	1.49285e-05	-1.23655	-2.55833e-06	0.0173869	1.12523e-07	
858	83.6128	1410.39	22.4492	1.4165e-05	-1.19073	-2.43275e-06	0.0167307	1.07223e-07	
859	90.9284	1401.17	24.218	1.53718e-05	-1.28496	-2.63834e-06	0.0180696	1.15634e-07	
860	84.8473	1406.65	23.0108	1.38677e-05	-1.21875	-2.5141e-06	0.017088	1.07539e-07	
861	84.8618	1409.67	22.8024	1.34255e-05	-1.21047	-2.58111e-06	0.0170474	1.11949e-07	
862	90.0118	1402.48	24.2998	1.4889e-05	-1.28681	-2.63547e-06	0.0180677	1.14905e-07	
863	63.3062	1421.42	19.6635	5.35612e-06	-1.00001	-2.37325e-06	0.0136337	6.43162e-08	
864	72.9353	1416.88	20.7605	1.07063e-05	-1.07929	-2.35022e-06	0.0149382	8.58107e-08	
865	69.5739	1416.88	20.6672	7.37551e-06	-1.06127	-2.45153e-06	0.01457	7.83322e-08	
866	84.4471	1406.9	23.0653	1.2292e-05	-1.21838	-2.56254e-06	0.0170842	1.06026e-07	
867	93.8568	1399.21	25.155	1.59116e-05	-1.33827	-2.72737e-06	0.018863	1.20364e-07	
868	78.0046	1411.14	21.8362	1.15006e-05	-1.14002	-2.43738e-06	0.0158512	9.5848e-08	
869	96.8749	1395.78	25.8273	1.66728e-05	-1.37563	-2.77805e-06	0.0194002	1.25237e-07	
870	77.4729	1412.54	22.0768	1.10014e-05	-1.14852	-2.45108e-06	0.0159143	9.14087e-08	
871	89.3122	1406.12	23.6391	1.4704e-05	-1.25913	-2.61015e-06	0.0177461	1.14946e-07	
872	81.5075	1410.44	22.3041	1.26693e-05	-1.17834	-2.47982e-06	0.0164931	1.02772e-07	
873	45.8598	1447.42	13.6756	5.12735e-06	-0.705532	-1.65489e-06	0.00966901	4.67528e-08	
874	92.3423	1398.89	25.1655	1.39747e-05	-1.3341	-2.79164e-06	0.0187561	1.18437e-07	
875	93.2991	1400.25	24.7871	1.60718e-05	-1.31918	-2.67587e-06	0.0185721	1.20585e-07	
876	82.7667	1408.91	22.7116	1.3709e-05	-1.19519	-2.47807e-06	0.0166858	1.02964e-07	
877	84.3466	1407.94	22.9847	1.39758e-05	-1.21035	-2.5024e-06	0.0169105	1.06259e-07	
878	82.2793	1405.72	22.8565	1.30327e-05	-1.19799	-2.51491e-06	0.0166967	1.01341e-07	
879	95.4159	1398.65	25.1569	1.62246e-05	-1.34729	-2.72238e-06	0.0190924	1.24909e-07	
880	85.0074	1408.49	22.8568	1.4038e-05	-1.21318	-2.49734e-06	0.0170674	1.08175e-07	
881	83.2814	1412.72	22.1481	1.39605e-05	-1.1841	-2.41965e-06	0.0167186	1.08526e-07	
882	74.4527	1411.67	21.8986	8.91548e-06	-1.12866	-2.45568e-06	0.0155564	8.48983e-08	
883	93.0579	1402.33	24.3379	1.61599e-05	-1.30316	-2.64303e-06	0.0184411	1.22065e-07	
884	59.004	1429.68	17.4434	5.93254e-06	-0.901647	-2.08105e-06	0.0124465	6.21777e-08	
885	95.4181	1397.25	25.5722	1.64112e-05	-1.36055	-2.75334e-06	0.0191523	1.23393e-07	
886	67.842	1424.03	19.2101	8.88364e-06	-1.00324	-2.22992e-06	0.0139316	8.23353e-08	
887	88.7865	1406.61	23.526	1.45839e-05	-1.247	-2.99246e-06	0.0175089	1.19126e-07	
888	77.6888	1415.45	21.1307	1.21783e-05	-1.11443	-2.33124e-06	0.0155742	9.90773e-08	
889	70.5636	1418.69	20.4623	8.74479e-06	-1.05777	-2.36747e-06	0.0145947	8.11008e-08	
890	83.7243	1405.63	23.4071	1.2914e-05	-1.22705	-2.58548e-06	0.0170934	1.02603e-07	
891	84.6839	1409.18	22.6697	1.41427e-05	-1.20511	-2.47501e-06	0.0169714	1.08461e-07	
892	92.1148	1400.83	24.5546	1.57327e-05	-1.31009	-2.67423e-06	0.018485	1.20161e-07	
893	81.0845	1410.79	22.0937	1.36314e-05	-1.16794	-2.40695e-06	0.016346	1.02042e-07	
894	78.7632	1408.07	22.5922	6.57511e-06	-1.17275	-2.64834e-06	0.0162771	9.28445e-08	
895	69.5745	1424.1	19.5063	1.06429e-05	-1.01674	-2.16753e-06	0.0140826	8.2461e-08	
896	92.2818	1402.54	24.2715	1.57494e-05	-1.29704	-2.66293e-06	0.0183158	1.20021e-07	
897	79.0779	1414.73	21.5158	1.20399e-05	-1.13802	-2.4161e-06	0.0159452	9.93656e-08	
898	81.752	1409.09	22.2312	1.29933e-05	-1.17363	-2.46218e-06	0.0164375	1.0344e-07	
899	112.274	1498.58	3.61764	-1.13231e-05	-0.324667	-7.51507e-07	0.00528511	1.27139e-08	
900	79.3986	1405.9	22.806	9.90825e-06	-1.18469	-2.62614e-06	0.0164184	9.42408e-08	
901	71.0357	1416.27	21.0278	6.43166e-06	-1.08571	-2.48135e-06	0.0149647	8.25193e-08	
902	87.8707	1403.28	23.9786	1.44867e-05	-1.26735	-2.6061e-06	0.0177511	1.1024e-07	
903	87.0866	1404.24	23.8335	1.42557e-05	-1.25617	-2.59358e-06	0.0175902	1.08134e-07	
904	86.9818	1402.39	24.2411	1.24679e-05	-1.27006	-2.721e-06	0.0177031	1.05918e-07	
905	72.2143	1420.15	19.8339	1.16146e-05	-1.04924	-2.20162e-06	0.0146996	9.09392e-08	
906	84.8957	1404.84	23.4847	1.36659e-05	-1.23163	-2.58008e-06	0.0171572	1.06151e-07	
907	84.4399	1407.18	23.0672	1.35388e-05	-1.21831	-2.53316e-06	0.0170684	1.05539e-07	
908	88.0449	1402.14	24.3714	1.24325e-05	-1.28147	-2.71857e-06	0.0179014	1.08926e-07	
909	77.1049	1410.89	21.9991	1.02238e-05	-1.14189	-2.51479e-06	0.015792	9.20914e-08	
910	71.4847	1420.6	19.7996	1.03128e-05	-1.04012	-2.24568e-06	0.0145137	8.73525e-08	
911	83.2083	1406.59	23.1315	1.32424e-05	-1.21292	-2.53784e-06	0.0169121	1.02567e-07	
912	76.7556	1416.24	21.0835	1.26708e-05	-1.11269	-2.30612e-06	0.0155365	9.70954e-08	
913	102.351	1397.09	25.5166	1.76045e-05	-1.38904	-2.81209e-06	0.0199032	1.36603e-07	
914	79.7856	1411.91	22.0596	1.30382e-05	-1.15664	-2.41355e-06	0.0160855	9.81889e-08	
915	86.8348	1406.36	23.4969	1.44403e-05	-1.24492	-2.55769e-06	0.0174687	1.10393e-07	
916	75.7461	1417.31	20.4724	1.27352e-05	-1.0839	-2.25156e-06	0.0151797	9.45276e-08	
917	83.072	1410.16	22.4108	1.31523e-05	-1.18658	-2.49862e-06	0.0166409	1.05488e-07	
918	70.0361	1417.29	20.519	8.51234e-06	-1.05826	-2.38664e-06	0.014574	7.87849e-08	
919	85.2158	1407.52	23.3165	1.302e-05	-1.23089	-2.6039e-06	0.0172338	1.07569e-07	
920	83.1615	1402.72	24.2567	8.05158e-06	-1.25389	-2.82695e-06	0.0173271	9.62169e-08	
921	84.3298	1407.04	23.2837	1.35212e-05	-1.22499	-2.56242e-06	0.0171	1.0494e-07	
922	83.5182	1410	22.2897	1.4002e-05	-1.18596	-2.43978e-06	0.0167027	1.06613e-07	
923	98.0762	1397.94	25.4459	1.65797e-05	-1.36366	-2.75534e-06	0.0193216	1.26513e-07	
924	86.215	1405.87	23.5017	1.4273e-05	-1.24511	-2.55861e-06	0.0174703	1.09248e-07	
925	80.6782	1405.19	23.4601	1.10984e-05	-1.21205	-2.632e-06	0.0167163	9.36651e-08	
926	80.3787	1413.3	22.0075	1.31266e-05	-1.16038	-2.39979e-06	0.0162031	9.95365e-08	
927	79.3924	1414.29	21.4417	1.30667e-05	-1.13142	-2.34489e-06	0.0158321	9.89248e-08	
928	83.5363	1410.63	22.5812	1.35612e-05	-1.1958	-2.50682e-06	0.0167689	1.06243e-07	
929	89.4788	1406.25	23.3822	1.52172e-05	-1.2529	-2.57799e-06	0.0177199	1.17332e-07	
930	82.8104	1405.57	23.747	1.21044e-05	-1.23339	-2.63421e-06	0.0170633	9.79436e-08	
931	87.9589	1401.9	23.9216	1.47635e-05	-1.26166	-2.57684e-06	0.0176434	1.10094e-07	
932	74.1629	1417.89	20.7537	9.56623e-06	-1.08589	-2.31254e-06	0.0151046	8.7686e-08	
933	87.4285	1402.11	24.2416	1.36723e-05	-1.27541	-2.68085e-06	0.0178195	1.10446e-07	
934	51.0903	1477.69	7.66639	-4.48114e-06	-0.467154	-1.21029e-06	0.0069265	2.1948e-08	
935	80.5331	1413.45	21.5547	1.30853e-05	-1.14768	-2.38756e-06	0.0161671	1.01431e-07	
936	85.6918	1403.76	23.7043	1.35006e-05	-1.24757	-2.62026e-06	0.0174219	1.07878e-07	
937	79.5732	1408.48	22.9501	1.06791e-05	-1.18964	-2.60913e-06	0.016451	9.22284e-08	
938	90.5124	1395.31	25.5105	1.17074e-05	-1.33563	-2.88495e-06	0.0186234	1.10937e-07	
939	82.3498	1407.24	22.8718	1.2669e-05	-1.19829	-2.5388e-06	0.0166729	1.0103e-07	
940	87.6862	1401.77	24.4828	1.32624e-05	-1.28539	-2.7088e-06	0.0179465	1.0687e-07	
941	98.2172	1396.39	25.8936	1.70175e-05	-1.38506	-2.78152e-06	0.0195818	1.27954e-07	
942	81.2533	1411.22	22.2366	1.29293e-05	-1.17561	-2.44551e-06	0.016486	1.02617e-07	
943	70.6198	1416.97	20.5843	6.5426e-06	-1.06899	-2.43807e-06	0.0148114	8.22842e-08	
944	81.1162	1406.04	23.1356	1.16736e-05	-1.2078	-2.58268e-06	0.0167918	9.86943e-08	
945	90.3775	1405.17	23.7276	1.54676e-05	-1.26864	-2.59549e-06	0.0179096	1.17735e-07	
946	98.1053	1394.38	26.2976	1.64236e-05	-1.39623	-2.87932e-06	0.0196532	1.25207e-07	
947	82.2245	1408.06	22.9419	1.24656e-05	-1.20506	-2.52744e-06	0.0168158	1.0097e-07	
948	70.4872	1422.59	19.5758	1.10026e-05	-1.0306	-2.16074e-06	0.0143965	8.65233e-08	
949	77.0508	1410.5	21.8414	1.21954e-05	-1.13787	-2.3848e-06	0.0157559	9.1551e-08	
950	92.2875	1400.23	24.6838	1.56043e-05	-1.31601	-2.68524e-06	0.0185533	1.18916e-07	
951	93.5807	1398.88	24.7726	1.59629e-05	-1.32473	-2.67591e-06	0.0187254	1.20771e-07	
952	75.0443	1415.27	20.957	1.19554e-05	-1.09899	-2.30265e-06	0.0152978	9.1323e-08	
953	71.7391	1419.04	20.5937	9.12084e-06	-1.07192	-2.37068e-06	0.0148381	8.52316e-08	
954	77.3894	1411.72	21.8007	9.98534e-06	-1.14216	-2.51646e-06	0.0159131	9.54487e-08	
955	89.0068	1402.26	23.9741	1.51007e-05	-1.26769	-2.59615e-06	0.01776	1.12558e-07	
956	87.6311	1403.25	23.7555	1.44305e-05	-1.25746	-2.63983e-06	0.0176371	1.12558e-07	
957	80.2105	1403.2	23.5212	7.47115e-06	-1.21566	-2.79329e-06	0.016799	9.32444e-08	
958	83.8162	1406	23.434	1.36221e-05	-1.22768	-2.55152e-06	0.0170914	1.01849e-07	
959	68.384	1424.39	19.1185	1.06869e-05	-1.00088	-2.14308e-06	0.0139105	8.20852e-08	
960	90.9852	1404.44	23.7341	1.58041e-05	-1.27224	-2.5852e-06	0.0180021	1.19684e-07	
961	90.4118	1401.71	24.4075	1.48013e-05	-1.29417	-2.66976e-06	0.0181709	1.15514e-07	
962	95.2184	1397.79	25.2005	1.59442e-05	-1.34366	-2.7654e-06	0.018957	1.23656e-07	
963	70.4651	1423.66	19.6843	1.06932e-05	-1.03385	-2.20665e-06	0.0144294	8.44739e-08	
964	88.466	1404.58	23.555	1.46961e-05	-1.23862	-2.63275e-06	0.0172807	1.10218e-07	
965	96.4659	1422.85	19.7383	1.21982e-05	-1.07413	-2.4232e-06	0.0153381	1.10974e-07	
966	84.5894	1406.53	23.2657	1.29651e-05	-1.22763	-2.56936e-06	0.0171749	1.0528e-07	
967	81.6285	1404.55	23.7764	9.3017e-06	-1.23224	-2.75416e-06	0.01704	9.54903e-08	
968	73.7737	1415.15	21.2316	1.0439e-05	-1.1067	-2.37678e-06	0.0153561	8.80285e-08	
969	87.8242	1403.08	24.087	1.27818e-05	-1.2704	-2.66857e-06	0.0177869	1.0936e-07	
970	93.2182	1398.4	25.1162	1.5616e-05	-1.33667	-2.73719e-06	0.0188281	1.1896e-07	
971	93.2481	1403.91	24.2794	1.46327e-05	-1.30151	-2.77092e-06	0.0184345	1.2193e-07	
972	89.3533	1401.95	24.253	1.40711e-05	-1.28642	-2.67234e-06	0.0180857	1.14059e-07	
973	85.9002	1405.83	23.491	1.38212e-05	-1.24023	-2.57392e-06	0.017366	1.08017e-07	
974	94.593	1401.1	24.6328	1.58998e-05	-1.32045	-2.6904e-06	0.0187091	1.22609e-07	
975	70.311	1416.63	20.7508	5.73564e-06	-1.06827	-2.5004e-06	0.0146958	7.82669e-08	
976	76.5827	1408.17	22.7886	6.41614e-06	-1.17139	-2.72857e-06	0.0161193	8.61089e-08	
977	77.736	1411.51	21.5914	1.25625e-05	-1.13097	-2.37169e-06	0.0157405	9.58704e-08	
978	88.2533	1399.9	24.3192	1.44318e-05	-1.28005	-2.65654e-06	0.0178755	1.11531e-07	
979	91.8509	1400.94	24.8825	1.33362e-05	-1.32016	-2.79072e-06	0.018583	1.16797e-07	
980	71.066	1418.09	20.5199	8.70669e-06	-1.06364	-2.40652e-06	0.0146871	8.19236e-08	
981	76.9866	1414.95	21.3355	1.22123e-05	-1.12199	-2.37524e-06	0.0156488	9.44425e-08	
982	78.809	1409.16	22.2754	1.24609e-05	-1.16171	-2.39949e-06	0.016129	9.34729e-08	
983	89.0697	1400.98	24.4884	1.42706e-05	-1.2931	-2.6695e-06	0.0181091	1.11721e-07	
984	91.6494	1402.77	24.5272	1.50789e-05	-1.3005	-2.68224e-06	0.0182481	1.16422e-07	
985	91.6459	1400.73	24.8137	1.4757e-05	-1.31383	-2.73741e-06	0.0184534	1.16731e-07	
986	87.4125	1404.97	23.6932	1.47123e-05	-1.25704	-2.54399e-06	0.0176493	1.10763e-07	
987	81.5918	1407.3	22.76	1.30023e-05	-1.1935	-2.49349e-06	0.0166263	9.94473e-08	
988	88.7918	1401.27	24.2147	1.34979e-05	-1.27128	-2.67538e-06	0.0177291	1.09182e-07	
989	85.1026	1405.72	23.5815	1.23507e-05	-1.23913	-2.68304e-06	0.0173078	1.06364e-07	
990	84.4331	1417.75	20.5755	6.04937e-06	-1.04287	-2.31526e-06	0.0141455	6.49786e-08	
991	100.989	1391.44	26.7886	1.7031e-05	-1.43209	-2.88214e-06	0.0202486	1.30842e-07	
992	89.9636	1408.25	22.9934	1.51517e-05	-1.2444	-2.50936e-06	0.0177256	1.17884e-07	
993	97.7378	1396.29	25.648	1.6457e-05	-1.37228	-2.78472e-06	0.0194059	1.26152e-07	
994	90.0941	1398.58	25.3163	1.22052e-05	-1.32639	-2.83698e-06	0.0184949	1.10982e-07	
995	93.739	1395.55	25.6331	1.48469e-05	-1.35068	-2.76549e-06	0.0188983	1.15571e-07	
996	89.7268	1404.08	23.8894	1.51236e-05	-1.27305	-2.58697e-06	0.017962	1.15764e-07	
997	85.754	1405.11	23.4709	1.2624e-05	-1.24085	-2.63368e-06	0.0174099	1.09396e-07	
998	90.1028	1399.74	25.0414	1.43449e-05	-1.31326	-2.73398e-06	0.0183051	1.10954e-07	
999	97.0845	1399.46	25.0303	1.65449e-05	-1.34686	-2.7224e-06	0.0191343	1.27129e-07	
1000	83.4499	1405.25	23.5399	1.2855e-05	-1.23271	-2.57875e-06	0.0171688	1.0168e-07	
1001	92.2987	1398.38	24.902	1.54305e-05	-1.3211	-2.7021e-06	0.0185656	1.18421e-07	
1002	94.192	1396.03	25.7043	1.45598e-05	-1.35742	-2.85467e-06	0.019032	1.19637e-07	
1003	88.44	1400.82	24.0828	1.17914e-05	-1.2735	-2.74274e-06	0.0178772	1.12165e-07	
1004	79.212	1409.4	22.5968	9.76715e-06	-1.17771	-2.59723e-06	0.0163568	9.51691e-08	
1005	97.0847	1391.11	26.7631	1.5417e-05	-1.41254	-2.92059e-06	0.0198272	1.21012e-07	
1006	94.902	1397.33	24.9423	1.61312e-05	-1.33337	-2.71498e-06	0.0188588	1.22765e-07	
1007	91.4065	1396.98	25.4226	1.34351e-05	-1.33519	-2.79897e-06	0.0186403	1.12716e-07	
1008	74.2942	1414.67	21.6158	8.82788e-06	-1.12145	-2.55416e-06	0.0155172	8.71103e-08	
1009	88.1117	1403.73	24.2908	1.35137e-05	-1.28121	-2.69666e-06	0.0179526	1.09643e-07	
1010	85.0484	1402.86	23.8293	1.26197e-05	-1.24715	-2.65205e-06	0.0173754	1.04742e-07	
1011	98.8082	1395.08	25.977	1.65342e-05	-1.38675	-2.77163e-06	0.0195969	1.2576e-07	
1012	67.782	1421.59	19.8421	7.8327e-06	-1.02786	-2.32577e-06	0.0141901	7.69432e-08	
1013	83.202	1404.92	23.7608	1.15482e-05	-1.23654	-2.67819e-06	0.0171449	9.95371e-08	
1014	71.2112	1420.9	19.9711	1.12061e-05	-1.04998	-2.25763e-06	0.0146304	8.86288e-08	
1015	93.4084	1397.65	25.6461	1.38027e-05	-1.35629	-2.84935e-06	0.0190326	1.16515e-07	
1016	96.4313	1396.99	25.5825	1.59699e-05	-1.36883	-2.78225e-06	0.0193652	1.25804e-07	
1017	70.313	1420.12	20.3047	8.44076e-06	-1.05184	-2.35092e-06	0.0145438	7.8891e-08	
1018	77.0719	1415.85	21.092	1.08085e-05	-1.11198	-2.31498e-06	0.0155995	9.17719e-08	
1019	95.0495	1402.53	24.4892	1.61996e-05	-1.31782	-2.66459e-06	0.0187182	1.24063e-07	
1020	100.261	1397.42	25.6654	1.73328e-05	-1.38574	-2.90491e-06	0.0197145	1.34355e-07	
1021	88.9935	1402.29	24.1808	1.44885e-05	-1.27994	-2.62543e-06	0.0179463	1.13388e-07	
1022	91.5782	1400.22	24.5777	1.55195e-05	-1.30733	-2.69389e-06	0.0184032	1.18378e-07	
1023	93.3579	1395.59	26.0278	1.42231e-05	-1.3675	-2.88178e-06	0.0191071	1.15335e-07	
1024	100.129	1394.65	26.6485	1.6377e-05	-1.42316	-2.90807e-06	0.0201075	1.29448e-07	
